// thickness-independent fraction of light power (for rudimentary optics) between 0 and 1
simple transmission coefficient:
1

// wavelength-independent absorption coefficient 'a' according to I(z)=I0*exp(-a*z) in [1/m]
lambert beer absorption coefficient:
0

// three-column refractive data for TMM calculations with wavelength [nm], n, k (must be tab-separated)
refractive data:
300	1.78949	0.0109
300.66533	1.78864	0.01063
301.33067	1.7878	0.01036
301.996	1.78696	0.0101
302.66133	1.78613	0.00984
303.32666	1.78531	0.00958
303.992	1.78449	0.00933
304.65733	1.78368	0.00908
305.32266	1.78288	0.00884
305.98799	1.78208	0.0086
306.65333	1.78129	0.00836
307.31866	1.78051	0.00813
307.98399	1.77973	0.0079
308.64932	1.77896	0.00768
309.31466	1.7782	0.00746
309.97999	1.77744	0.00724
310.64532	1.77669	0.00702
311.31066	1.77595	0.00681
311.97599	1.77521	0.00661
312.64132	1.77447	0.0064
313.30665	1.77375	0.0062
313.97199	1.77302	0.006
314.63732	1.77231	0.00581
315.30265	1.7716	0.00561
315.96798	1.77089	0.00542
316.63332	1.77019	0.00524
317.29865	1.7695	0.00506
317.96398	1.76881	0.00488
318.62931	1.76813	0.0047
319.29465	1.76745	0.00452
319.95998	1.76678	0.00435
320.62531	1.76611	0.00418
321.29065	1.76545	0.00402
321.95598	1.76479	0.00385
322.62131	1.76414	0.00369
323.28664	1.76349	0.00353
323.95198	1.76285	0.00338
324.61731	1.76222	0.00322
325.28264	1.76158	0.00307
325.94797	1.76096	0.00292
326.61331	1.76034	0.00278
327.27864	1.75972	0.00263
327.94397	1.7591	0.00249
328.6093	1.7585	0.00235
329.27464	1.75789	0.00222
329.93997	1.75729	0.00208
330.6053	1.7567	0.00195
331.27064	1.75611	0.00182
331.93597	1.75552	0.00169
332.6013	1.75494	0.00156
333.26663	1.75436	0.00144
333.93197	1.75379	0.00132
334.5973	1.75322	0.0012
335.26263	1.75266	0.00108
335.92796	1.7521	9.6E-4
336.5933	1.75154	8.5E-4
337.25863	1.75099	7.3E-4
337.92396	1.75044	6.2E-4
338.58929	1.74989	5.1E-4
339.25463	1.74935	4.1E-4
339.91996	1.74882	3E-4
340.58529	1.74828	2E-4
341.25063	1.74776	1E-4
341.91596	1.74723	0
342.58129	1.74671	1E-4
343.24662	1.74619	2E-4
343.91196	1.74568	2.9E-4
344.57729	1.74517	3.9E-4
345.24262	1.74466	4.8E-4
345.90795	1.74416	5.7E-4
346.57329	1.74366	6.6E-4
347.23862	1.74316	7.4E-4
347.90395	1.74267	8.3E-4
348.56928	1.74218	9.2E-4
349.23462	1.7417	0.001
349.89995	1.74121	0.00108
350.56528	1.74073	0.00116
351.23062	1.74026	0.00124
351.89595	1.73979	0.00132
352.56128	1.73932	0.00139
353.22661	1.73885	0.00147
353.89195	1.73839	0.00154
354.55728	1.73793	0.00161
355.22261	1.73747	0.00168
355.88794	1.73702	0.00175
356.55328	1.73657	0.00182
357.21861	1.73612	0.00189
357.88394	1.73568	0.00195
358.54927	1.73524	0.00202
359.21461	1.7348	0.00208
359.87994	1.73436	0.00214
360.54527	1.73393	0.0022
361.21061	1.7335	0.00226
361.87594	1.73308	0.00232
362.54127	1.73265	0.00238
363.2066	1.73223	0.00244
363.87194	1.73181	0.00249
364.53727	1.7314	0.00255
365.2026	1.73098	0.0026
365.86793	1.73057	0.00265
366.53327	1.73017	0.0027
367.1986	1.72976	0.00275
367.86393	1.72936	0.0028
368.52926	1.72896	0.00285
369.1946	1.72857	0.0029
369.85993	1.72817	0.00295
370.52526	1.72778	0.00299
371.1906	1.72739	0.00304
371.85593	1.727	0.00308
372.52126	1.72662	0.00312
373.18659	1.72624	0.00317
373.85193	1.72586	0.00321
374.51726	1.72548	0.00325
375.18259	1.72511	0.00329
375.84792	1.72474	0.00333
376.51326	1.72437	0.00336
377.17859	1.724	0.0034
377.84392	1.72364	0.00344
378.50925	1.72327	0.00347
379.17459	1.72291	0.00351
379.83992	1.72256	0.00354
380.50525	1.7222	0.00358
381.17059	1.72185	0.00361
381.83592	1.72149	0.00364
382.50125	1.72115	0.00367
383.16658	1.7208	0.0037
383.83192	1.72045	0.00373
384.49725	1.72011	0.00376
385.16258	1.71977	0.00379
385.82791	1.71943	0.00382
386.49325	1.7191	0.00384
387.15858	1.71876	0.00387
387.82391	1.71843	0.0039
388.48924	1.7181	0.00392
389.15458	1.71777	0.00395
389.81991	1.71744	0.00397
390.48524	1.71712	0.00399
391.15058	1.7168	0.00402
391.81591	1.71648	0.00404
392.48124	1.71616	0.00406
393.14657	1.71584	0.00408
393.81191	1.71553	0.0041
394.47724	1.71521	0.00412
395.14257	1.7149	0.00414
395.8079	1.7146	0.00416
396.47324	1.71429	0.00418
397.13857	1.71398	0.00419
397.8039	1.71368	0.00421
398.46923	1.71338	0.00423
399.13457	1.71308	0.00424
399.7999	1.71278	0.00426
400.46523	1.71248	0.00427
401.13057	1.71219	0.00429
401.7959	1.7119	0.0043
402.46123	1.7116	0.00432
403.12656	1.71131	0.00433
403.7919	1.71103	0.00434
404.45723	1.71074	0.00435
405.12256	1.71046	0.00437
405.78789	1.71017	0.00438
406.45323	1.70989	0.00439
407.11856	1.70961	0.0044
407.78389	1.70933	0.00441
408.44922	1.70906	0.00442
409.11456	1.70878	0.00443
409.77989	1.70851	0.00444
410.44522	1.70824	0.00445
411.11056	1.70797	0.00445
411.77589	1.7077	0.00446
412.44122	1.70743	0.00447
413.10655	1.70717	0.00447
413.77189	1.7069	0.00448
414.43722	1.70664	0.00449
415.10255	1.70638	0.00449
415.76788	1.70612	0.0045
416.43322	1.70586	0.0045
417.09855	1.7056	0.00451
417.76388	1.70535	0.00451
418.42921	1.70509	0.00452
419.09455	1.70484	0.00452
419.75988	1.70459	0.00452
420.42521	1.70434	0.00453
421.09055	1.70409	0.00453
421.75588	1.70385	0.00453
422.42121	1.7036	0.00453
423.08654	1.70336	0.00454
423.75188	1.70311	0.00454
424.41721	1.70287	0.00454
425.08254	1.70263	0.00454
425.74787	1.70239	0.00454
426.41321	1.70216	0.00454
427.07854	1.70192	0.00454
427.74387	1.70168	0.00454
428.4092	1.70145	0.00454
429.07454	1.70122	0.00454
429.73987	1.70099	0.00454
430.4052	1.70076	0.00454
431.07054	1.70053	0.00454
431.73587	1.7003	0.00453
432.4012	1.70007	0.00453
433.06653	1.69985	0.00453
433.73187	1.69962	0.00453
434.3972	1.6994	0.00452
435.06253	1.69918	0.00452
435.72786	1.69896	0.00452
436.3932	1.69874	0.00451
437.05853	1.69852	0.00451
437.72386	1.69831	0.00451
438.38919	1.69809	0.0045
439.05453	1.69788	0.0045
439.71986	1.69766	0.00449
440.38519	1.69745	0.00449
441.05053	1.69724	0.00448
441.71586	1.69703	0.00448
442.38119	1.69682	0.00447
443.04652	1.69661	0.00447
443.71186	1.6964	0.00446
444.37719	1.6962	0.00445
445.04252	1.69599	0.00445
445.70785	1.69579	0.00444
446.37319	1.69559	0.00444
447.03852	1.69538	0.00443
447.70385	1.69518	0.00442
448.36918	1.69498	0.00441
449.03452	1.69479	0.00441
449.69985	1.69459	0.0044
450.36518	1.69439	0.00439
451.03052	1.6942	0.00438
451.69585	1.694	0.00438
452.36118	1.69381	0.00437
453.02651	1.69362	0.00436
453.69185	1.69342	0.00435
454.35718	1.69323	0.00434
455.02251	1.69304	0.00433
455.68784	1.69286	0.00433
456.35318	1.69267	0.00432
457.01851	1.69248	0.00431
457.68384	1.69229	0.0043
458.34917	1.69211	0.00429
459.01451	1.69193	0.00428
459.67984	1.69174	0.00427
460.34517	1.69156	0.00426
461.01051	1.69138	0.00425
461.67584	1.6912	0.00424
462.34117	1.69102	0.00423
463.0065	1.69084	0.00422
463.67184	1.69066	0.00421
464.33717	1.69049	0.0042
465.0025	1.69031	0.00419
465.66783	1.69013	0.00418
466.33317	1.68996	0.00416
466.9985	1.68979	0.00415
467.66383	1.68961	0.00414
468.32916	1.68944	0.00413
468.9945	1.68927	0.00412
469.65983	1.6891	0.00411
470.32516	1.68893	0.0041
470.9905	1.68876	0.00408
471.65583	1.68859	0.00407
472.32116	1.68843	0.00406
472.98649	1.68826	0.00405
473.65183	1.6881	0.00404
474.31716	1.68793	0.00402
474.98249	1.68777	0.00401
475.64782	1.68761	0.004
476.31316	1.68744	0.00399
476.97849	1.68728	0.00397
477.64382	1.68712	0.00396
478.30915	1.68696	0.00395
478.97449	1.6868	0.00394
479.63982	1.68664	0.00392
480.30515	1.68649	0.00391
480.97049	1.68633	0.0039
481.63582	1.68617	0.00388
482.30115	1.68602	0.00387
482.96648	1.68586	0.00386
483.63182	1.68571	0.00384
484.29715	1.68556	0.00383
484.96248	1.6854	0.00382
485.62781	1.68525	0.0038
486.29315	1.6851	0.00379
486.95848	1.68495	0.00377
487.62381	1.6848	0.00376
488.28914	1.68465	0.00375
488.95448	1.6845	0.00373
489.61981	1.68436	0.00372
490.28514	1.68421	0.0037
490.95048	1.68406	0.00369
491.61581	1.68392	0.00368
492.28114	1.68377	0.00366
492.94647	1.68363	0.00365
493.61181	1.68348	0.00363
494.27714	1.68334	0.00362
494.94247	1.6832	0.0036
495.6078	1.68306	0.00359
496.27314	1.68292	0.00357
496.93847	1.68278	0.00356
497.6038	1.68264	0.00355
498.26913	1.6825	0.00353
498.93447	1.68236	0.00352
499.5998	1.68222	0.0035
500.26513	1.68208	0.00349
500.93047	1.68195	0.00347
501.5958	1.68181	0.00346
502.26113	1.68167	0.00344
502.92646	1.68154	0.00343
503.5918	1.68141	0.00341
504.25713	1.68127	0.00339
504.92246	1.68114	0.00338
505.58779	1.68101	0.00336
506.25313	1.68087	0.00335
506.91846	1.68074	0.00333
507.58379	1.68061	0.00332
508.24912	1.68048	0.0033
508.91446	1.68035	0.00329
509.57979	1.68022	0.00327
510.24512	1.68009	0.00326
510.91046	1.67997	0.00324
511.57579	1.67984	0.00322
512.24112	1.67971	0.00321
512.90645	1.67959	0.00319
513.57179	1.67946	0.00318
514.23712	1.67934	0.00316
514.90245	1.67921	0.00315
515.56778	1.67909	0.00313
516.23312	1.67896	0.00311
516.89845	1.67884	0.0031
517.56378	1.67872	0.00308
518.22911	1.6786	0.00307
518.89445	1.67848	0.00305
519.55978	1.67835	0.00304
520.22511	1.67823	0.00302
520.89045	1.67811	0.003
521.55578	1.678	0.00299
522.22111	1.67788	0.00297
522.88644	1.67776	0.00296
523.55178	1.67764	0.00294
524.21711	1.67752	0.00292
524.88244	1.67741	0.00291
525.54777	1.67729	0.00289
526.21311	1.67717	0.00287
526.87844	1.67706	0.00286
527.54377	1.67694	0.00284
528.2091	1.67683	0.00283
528.87444	1.67672	0.00281
529.53977	1.6766	0.00279
530.2051	1.67649	0.00278
530.87044	1.67638	0.00276
531.53577	1.67626	0.00275
532.2011	1.67615	0.00273
532.86643	1.67604	0.00271
533.53177	1.67593	0.0027
534.1971	1.67582	0.00268
534.86243	1.67571	0.00266
535.52776	1.6756	0.00265
536.1931	1.67549	0.00263
536.85843	1.67539	0.00261
537.52376	1.67528	0.0026
538.18909	1.67517	0.00258
538.85443	1.67506	0.00257
539.51976	1.67496	0.00255
540.18509	1.67485	0.00253
540.85043	1.67475	0.00252
541.51576	1.67464	0.0025
542.18109	1.67454	0.00248
542.84642	1.67443	0.00247
543.51176	1.67433	0.00245
544.17709	1.67422	0.00243
544.84242	1.67412	0.00242
545.50775	1.67402	0.0024
546.17309	1.67392	0.00239
546.83842	1.67381	0.00237
547.50375	1.67371	0.00235
548.16908	1.67361	0.00234
548.83442	1.67351	0.00232
549.49975	1.67341	0.0023
550.16508	1.67331	0.00229
550.83042	1.67321	0.00227
551.49575	1.67311	0.00225
552.16108	1.67301	0.00224
552.82641	1.67291	0.00222
553.49175	1.67282	0.0022
554.15708	1.67272	0.00219
554.82241	1.67262	0.00217
555.48774	1.67253	0.00216
556.15308	1.67243	0.00214
556.81841	1.67233	0.00212
557.48374	1.67224	0.00211
558.14907	1.67214	0.00209
558.81441	1.67205	0.00207
559.47974	1.67195	0.00206
560.14507	1.67186	0.00204
560.81041	1.67177	0.00202
561.47574	1.67167	0.00201
562.14107	1.67158	0.00199
562.8064	1.67149	0.00198
563.47174	1.67139	0.00196
564.13707	1.6713	0.00194
564.8024	1.67121	0.00193
565.46773	1.67112	0.00191
566.13307	1.67103	0.00189
566.7984	1.67094	0.00188
567.46373	1.67085	0.00186
568.12906	1.67076	0.00185
568.7944	1.67067	0.00183
569.45973	1.67058	0.00181
570.12506	1.67049	0.0018
570.7904	1.6704	0.00178
571.45573	1.67032	0.00176
572.12106	1.67023	0.00175
572.78639	1.67014	0.00173
573.45173	1.67005	0.00172
574.11706	1.66997	0.0017
574.78239	1.66988	0.00168
575.44772	1.66979	0.00167
576.11306	1.66971	0.00165
576.77839	1.66962	0.00163
577.44372	1.66954	0.00162
578.10905	1.66945	0.0016
578.77439	1.66937	0.00159
579.43972	1.66928	0.00157
580.10505	1.6692	0.00155
580.77039	1.66912	0.00154
581.43572	1.66903	0.00152
582.10105	1.66895	0.00151
582.76638	1.66887	0.00149
583.43172	1.66879	0.00147
584.09705	1.6687	0.00146
584.76238	1.66862	0.00144
585.42771	1.66854	0.00143
586.09305	1.66846	0.00141
586.75838	1.66838	0.00139
587.42371	1.6683	0.00138
588.08904	1.66822	0.00136
588.75438	1.66814	0.00135
589.41971	1.66806	0.00133
590.08504	1.66798	0.00131
590.75038	1.6679	0.0013
591.41571	1.66782	0.00128
592.08104	1.66775	0.00127
592.74637	1.66767	0.00125
593.41171	1.66759	0.00123
594.07704	1.66751	0.00122
594.74237	1.66743	0.0012
595.4077	1.66736	0.00119
596.07304	1.66728	0.00117
596.73837	1.6672	0.00116
597.4037	1.66713	0.00114
598.06903	1.66705	0.00112
598.73437	1.66698	0.00111
599.3997	1.6669	0.00109
600.06503	1.66683	0.00108
600.73037	1.66675	0.00106
601.3957	1.66668	0.00105
602.06103	1.6666	0.00103
602.72636	1.66653	0.00101
603.3917	1.66646	0.001
604.05703	1.66638	9.8E-4
604.72236	1.66631	9.7E-4
605.38769	1.66624	9.5E-4
606.05303	1.66616	9.4E-4
606.71836	1.66609	9.2E-4
607.38369	1.66602	9.1E-4
608.04902	1.66595	8.9E-4
608.71436	1.66588	8.8E-4
609.37969	1.66581	8.6E-4
610.04502	1.66573	8.4E-4
610.71036	1.66566	8.3E-4
611.37569	1.66559	8.1E-4
612.04102	1.66552	8E-4
612.70635	1.66545	7.8E-4
613.37169	1.66538	7.7E-4
614.03702	1.66531	7.5E-4
614.70235	1.66524	7.4E-4
615.36768	1.66517	7.2E-4
616.03302	1.66511	7.1E-4
616.69835	1.66504	6.9E-4
617.36368	1.66497	6.8E-4
618.02901	1.6649	6.6E-4
618.69435	1.66483	6.5E-4
619.35968	1.66477	6.3E-4
620.02501	1.6647	6.2E-4
620.69035	1.66463	6E-4
621.35568	1.66456	5.9E-4
622.02101	1.6645	5.7E-4
622.68634	1.66443	5.6E-4
623.35168	1.66437	5.4E-4
624.01701	1.6643	5.3E-4
624.68234	1.66423	5.1E-4
625.34767	1.66417	5E-4
626.01301	1.6641	4.8E-4
626.67834	1.66404	4.7E-4
627.34367	1.66397	4.5E-4
628.009	1.66391	4.4E-4
628.67434	1.66384	4.2E-4
629.33967	1.66378	4.1E-4
630.005	1.66372	3.9E-4
630.67034	1.66365	3.8E-4
631.33567	1.66359	3.6E-4
632.001	1.66352	3.5E-4
632.66633	1.66346	3.3E-4
633.33167	1.6634	3.2E-4
633.997	1.66334	3E-4
634.66233	1.66327	2.9E-4
635.32766	1.66321	2.7E-4
635.993	1.66315	2.6E-4
636.65833	1.66309	2.5E-4
637.32366	1.66303	2.3E-4
637.98899	1.66296	2.2E-4
638.65433	1.6629	2E-4
639.31966	1.66284	1.9E-4
639.98499	1.66278	1.7E-4
640.65033	1.66272	1.6E-4
641.31566	1.66266	1.4E-4
641.98099	1.6626	1.3E-4
642.64632	1.66254	1.1E-4
643.31166	1.66248	1E-4
643.97699	1.66242	9E-5
644.64232	1.66236	7E-5
645.30765	1.6623	6E-5
645.97299	1.66224	4E-5
646.63832	1.66219	3E-5
647.30365	1.66213	1E-5
647.96898	1.66207	0
648.63432	1.66201	1E-5
649.29965	1.66195	3E-5
649.96498	1.66189	4E-5
650.63032	1.66184	6E-5
651.29565	1.66178	7E-5
651.96098	1.66172	8E-5
652.62631	1.66166	1E-4
653.29165	1.66161	1.1E-4
653.95698	1.66155	1.3E-4
654.62231	1.66149	1.4E-4
655.28764	1.66144	1.5E-4
655.95298	1.66138	1.7E-4
656.61831	1.66133	1.8E-4
657.28364	1.66127	2E-4
657.94897	1.66122	2.1E-4
658.61431	1.66116	2.2E-4
659.27964	1.6611	2.4E-4
659.94497	1.66105	2.5E-4
660.61031	1.66099	2.7E-4
661.27564	1.66094	2.8E-4
661.94097	1.66089	2.9E-4
662.6063	1.66083	3.1E-4
663.27164	1.66078	3.2E-4
663.93697	1.66072	3.3E-4
664.6023	1.66067	3.5E-4
665.26763	1.66062	3.6E-4
665.93297	1.66056	3.7E-4
666.5983	1.66051	3.9E-4
667.26363	1.66046	4E-4
667.92896	1.6604	4.2E-4
668.5943	1.66035	4.3E-4
669.25963	1.6603	4.4E-4
669.92496	1.66025	4.6E-4
670.5903	1.66019	4.7E-4
671.25563	1.66014	4.8E-4
671.92096	1.66009	5E-4
672.58629	1.66004	5.1E-4
673.25163	1.65999	5.2E-4
673.91696	1.65993	5.4E-4
674.58229	1.65988	5.5E-4
675.24762	1.65983	5.6E-4
675.91296	1.65978	5.8E-4
676.57829	1.65973	5.9E-4
677.24362	1.65968	6E-4
677.90895	1.65963	6.2E-4
678.57429	1.65958	6.3E-4
679.23962	1.65953	6.4E-4
679.90495	1.65948	6.6E-4
680.57029	1.65943	6.7E-4
681.23562	1.65938	6.8E-4
681.90095	1.65933	7E-4
682.56628	1.65928	7.1E-4
683.23162	1.65923	7.2E-4
683.89695	1.65918	7.3E-4
684.56228	1.65913	7.5E-4
685.22761	1.65908	7.6E-4
685.89295	1.65904	7.7E-4
686.55828	1.65899	7.9E-4
687.22361	1.65894	8E-4
687.88894	1.65889	8.1E-4
688.55428	1.65884	8.2E-4
689.21961	1.6588	8.4E-4
689.88494	1.65875	8.5E-4
690.55028	1.6587	8.6E-4
691.21561	1.65865	8.8E-4
691.88094	1.65861	8.9E-4
692.54627	1.65856	9E-4
693.21161	1.65851	9.1E-4
693.87694	1.65846	9.3E-4
694.54227	1.65842	9.4E-4
695.2076	1.65837	9.5E-4
695.87294	1.65832	9.6E-4
696.53827	1.65828	9.8E-4
697.2036	1.65823	9.9E-4
697.86893	1.65819	0.001
698.53427	1.65814	0.00102
699.1996	1.6581	0.00103
699.86493	1.65805	0.00104
700.53027	1.658	0.00105
701.1956	1.65796	0.00107
701.86093	1.65791	0.00108
702.52626	1.65787	0.00109
703.1916	1.65782	0.0011
703.85693	1.65778	0.00111
704.52226	1.65773	0.00113
705.18759	1.65769	0.00114
705.85293	1.65765	0.00115
706.51826	1.6576	0.00116
707.18359	1.65756	0.00118
707.84892	1.65751	0.00119
708.51426	1.65747	0.0012
709.17959	1.65743	0.00121
709.84492	1.65738	0.00122
710.51026	1.65734	0.00124
711.17559	1.6573	0.00125
711.84092	1.65725	0.00126
712.50625	1.65721	0.00127
713.17159	1.65717	0.00129
713.83692	1.65712	0.0013
714.50225	1.65708	0.00131
715.16758	1.65704	0.00132
715.83292	1.657	0.00133
716.49825	1.65695	0.00135
717.16358	1.65691	0.00136
717.82891	1.65687	0.00137
718.49425	1.65683	0.00138
719.15958	1.65679	0.00139
719.82491	1.65675	0.0014
720.49025	1.6567	0.00142
721.15558	1.65666	0.00143
721.82091	1.65662	0.00144
722.48624	1.65658	0.00145
723.15158	1.65654	0.00146
723.81691	1.6565	0.00148
724.48224	1.65646	0.00149
725.14757	1.65642	0.0015
725.81291	1.65638	0.00151
726.47824	1.65634	0.00152
727.14357	1.6563	0.00153
727.8089	1.65626	0.00155
728.47424	1.65622	0.00156
729.13957	1.65618	0.00157
729.8049	1.65614	0.00158
730.47024	1.6561	0.00159
731.13557	1.65606	0.0016
731.8009	1.65602	0.00161
732.46623	1.65598	0.00163
733.13157	1.65594	0.00164
733.7969	1.6559	0.00165
734.46223	1.65586	0.00166
735.12756	1.65582	0.00167
735.7929	1.65578	0.00168
736.45823	1.65574	0.00169
737.12356	1.6557	0.00171
737.78889	1.65567	0.00172
738.45423	1.65563	0.00173
739.11956	1.65559	0.00174
739.78489	1.65555	0.00175
740.45023	1.65551	0.00176
741.11556	1.65548	0.00177
741.78089	1.65544	0.00178
742.44622	1.6554	0.0018
743.11156	1.65536	0.00181
743.77689	1.65533	0.00182
744.44222	1.65529	0.00183
745.10755	1.65525	0.00184
745.77289	1.65521	0.00185
746.43822	1.65518	0.00186
747.10355	1.65514	0.00187
747.76888	1.6551	0.00188
748.43422	1.65507	0.00189
749.09955	1.65503	0.00191
749.76488	1.65499	0.00192
750.43022	1.65496	0.00193
751.09555	1.65492	0.00194
751.76088	1.65488	0.00195
752.42621	1.65485	0.00196
753.09155	1.65481	0.00197
753.75688	1.65478	0.00198
754.42221	1.65474	0.00199
755.08754	1.6547	0.002
755.75288	1.65467	0.00201
756.41821	1.65463	0.00202
757.08354	1.6546	0.00204
757.74887	1.65456	0.00205
758.41421	1.65453	0.00206
759.07954	1.65449	0.00207
759.74487	1.65446	0.00208
760.41021	1.65442	0.00209
761.07554	1.65439	0.0021
761.74087	1.65435	0.00211
762.4062	1.65432	0.00212
763.07154	1.65428	0.00213
763.73687	1.65425	0.00214
764.4022	1.65421	0.00215
765.06753	1.65418	0.00216
765.73287	1.65415	0.00217
766.3982	1.65411	0.00218
767.06353	1.65408	0.00219
767.72886	1.65404	0.0022
768.3942	1.65401	0.00221
769.05953	1.65398	0.00222
769.72486	1.65394	0.00223
770.3902	1.65391	0.00225
771.05553	1.65388	0.00226
771.72086	1.65384	0.00227
772.38619	1.65381	0.00228
773.05153	1.65378	0.00229
773.71686	1.65374	0.0023
774.38219	1.65371	0.00231
775.04752	1.65368	0.00232
775.71286	1.65364	0.00233
776.37819	1.65361	0.00234
777.04352	1.65358	0.00235
777.70885	1.65355	0.00236
778.37419	1.65351	0.00237
779.03952	1.65348	0.00238
779.70485	1.65345	0.00239
780.37019	1.65342	0.0024
781.03552	1.65338	0.00241
781.70085	1.65335	0.00242
782.36618	1.65332	0.00243
783.03152	1.65329	0.00244
783.69685	1.65326	0.00245
784.36218	1.65323	0.00246
785.02751	1.65319	0.00247
785.69285	1.65316	0.00248
786.35818	1.65313	0.00249
787.02351	1.6531	0.0025
787.68884	1.65307	0.00251
788.35418	1.65304	0.00252
789.01951	1.65301	0.00253
789.68484	1.65298	0.00254
790.35018	1.65294	0.00255
791.01551	1.65291	0.00256
791.68084	1.65288	0.00257
792.34617	1.65285	0.00258
793.01151	1.65282	0.00258
793.67684	1.65279	0.00259
794.34217	1.65276	0.0026
795.0075	1.65273	0.00261
795.67284	1.6527	0.00262
796.33817	1.65267	0.00263
797.0035	1.65264	0.00264
797.66883	1.65261	0.00265
798.33417	1.65258	0.00266
798.9995	1.65255	0.00267
799.66483	1.65252	0.00268
800.33017	1.65249	0.00269
800.9955	1.65246	0.0027
801.66083	1.65243	0.00271
802.32616	1.6524	0.00272
802.9915	1.65237	0.00273
803.65683	1.65234	0.00274
804.32216	1.65231	0.00275
804.98749	1.65228	0.00276
805.65283	1.65226	0.00277
806.31816	1.65223	0.00277
806.98349	1.6522	0.00278
807.64882	1.65217	0.00279
808.31416	1.65214	0.0028
808.97949	1.65211	0.00281
809.64482	1.65208	0.00282
810.31016	1.65205	0.00283
810.97549	1.65203	0.00284
811.64082	1.652	0.00285
812.30615	1.65197	0.00286
812.97149	1.65194	0.00287
813.63682	1.65191	0.00288
