// thickness-independent fraction of light power (for rudimentary optics) between 0 and 1
simple transmission coefficient:
1

// wavelength-independent absorption coefficient 'a' according to I(z)=I0*exp(-a*z) in [1/m]
lambert beer absorption coefficient:
0

// three-column refractive data for TMM calculations with wavelength [nm], n, k (must be tab-separated)
refractive data:
300	2.41228	0.3062
300.66533	2.41193	0.30258
301.33067	2.41156	0.29897
301.996	2.41115	0.29538
302.66133	2.41073	0.2918
303.32666	2.41027	0.28823
303.992	2.4098	0.28467
304.65733	2.40929	0.28113
305.32266	2.40877	0.2776
305.98799	2.40821	0.27408
306.65333	2.40764	0.27058
307.31866	2.40703	0.26709
307.98399	2.40641	0.26362
308.64932	2.40576	0.26016
309.31466	2.40508	0.25671
309.97999	2.40438	0.25328
310.64532	2.40366	0.24987
311.31066	2.40291	0.24647
311.97599	2.40214	0.24308
312.64132	2.40135	0.23971
313.30665	2.40053	0.23636
313.97199	2.39969	0.23302
314.63732	2.39883	0.22969
315.30265	2.39794	0.22638
315.96798	2.39703	0.22309
316.63332	2.3961	0.21982
317.29865	2.39514	0.21656
317.96398	2.39416	0.21332
318.62931	2.39316	0.21009
319.29465	2.39214	0.20688
319.95998	2.39109	0.20369
320.62531	2.39002	0.20052
321.29065	2.38893	0.19736
321.95598	2.38782	0.19422
322.62131	2.38669	0.1911
323.28664	2.38553	0.188
323.95198	2.38436	0.18491
324.61731	2.38316	0.18185
325.28264	2.38194	0.1788
325.94797	2.3807	0.17577
326.61331	2.37944	0.17276
327.27864	2.37816	0.16977
327.94397	2.37686	0.16679
328.6093	2.37554	0.16384
329.27464	2.37419	0.16091
329.93997	2.37283	0.158
330.6053	2.37145	0.1551
331.27064	2.37005	0.15223
331.93597	2.36863	0.14938
332.6013	2.36718	0.14655
333.26663	2.36572	0.14373
333.93197	2.36424	0.14094
334.5973	2.36274	0.13817
335.26263	2.36123	0.13543
335.92796	2.35969	0.1327
336.5933	2.35814	0.12999
337.25863	2.35656	0.12731
337.92396	2.35497	0.12465
338.58929	2.35336	0.12201
339.25463	2.35173	0.11939
339.91996	2.35009	0.1168
340.58529	2.34843	0.11423
341.25063	2.34675	0.11168
341.91596	2.34505	0.10915
342.58129	2.34334	0.10665
343.24662	2.34161	0.10417
343.91196	2.33986	0.10171
344.57729	2.3381	0.09928
345.24262	2.33632	0.09688
345.90795	2.33453	0.09449
346.57329	2.33272	0.09213
347.23862	2.33089	0.0898
347.90395	2.32905	0.08749
348.56928	2.3272	0.08521
349.23462	2.32533	0.08295
349.89995	2.32344	0.08071
350.56528	2.32154	0.07851
351.23062	2.31963	0.07632
351.89595	2.3177	0.07417
352.56128	2.31576	0.07204
353.22661	2.31381	0.06994
353.89195	2.31184	0.06786
354.55728	2.30986	0.06581
355.22261	2.30787	0.06379
355.88794	2.30587	0.06179
356.55328	2.30385	0.05982
357.21861	2.30182	0.05788
357.88394	2.29978	0.05597
358.54927	2.29773	0.05409
359.21461	2.29567	0.05223
359.87994	2.2936	0.0504
360.54527	2.29152	0.0486
361.21061	2.28943	0.04683
361.87594	2.28733	0.04509
362.54127	2.28521	0.04338
363.2066	2.2831	0.0417
363.87194	2.28097	0.04005
364.53727	2.27883	0.03843
365.2026	2.27669	0.03684
365.86793	2.27453	0.03528
366.53327	2.27238	0.03375
367.1986	2.27021	0.03225
367.86393	2.26804	0.03078
368.52926	2.26586	0.02934
369.1946	2.26368	0.02794
369.85993	2.26149	0.02656
370.52526	2.2593	0.02522
371.1906	2.2571	0.02391
371.85593	2.2549	0.02264
372.52126	2.25269	0.02139
373.18659	2.25049	0.02018
373.85193	2.24828	0.01901
374.51726	2.24607	0.01786
375.18259	2.24385	0.01675
375.84792	2.24164	0.01567
376.51326	2.23943	0.01463
377.17859	2.23721	0.01362
377.84392	2.235	0.01265
378.50925	2.23279	0.01171
379.17459	2.23059	0.01081
379.83992	2.22838	0.00994
380.50525	2.22618	0.00911
381.17059	2.22399	0.00831
381.83592	2.2218	0.00755
382.50125	2.21961	0.00683
383.16658	2.21744	0.00614
383.83192	2.21527	0.00549
384.49725	2.21311	0.00487
385.16258	2.21096	0.0043
385.82791	2.20882	0.00376
386.49325	2.20669	0.00326
387.15858	2.20458	0.00279
387.82391	2.20248	0.00237
388.48924	2.20039	0.00198
389.15458	2.19833	0.00163
389.81991	2.19628	0.00132
390.48524	2.19426	0.00105
391.15058	2.19225	8.2E-4
391.81591	2.19028	6.2E-4
392.48124	2.18833	4.7E-4
393.14657	2.18642	3.6E-4
393.81191	2.18454	2.9E-4
394.47724	2.18271	2.6E-4
395.14257	2.18094	2.6E-4
395.8079	2.17923	2.6E-4
396.47324	2.17756	2.6E-4
397.13857	2.17593	2.6E-4
397.8039	2.17433	2.6E-4
398.46923	2.17276	2.6E-4
399.13457	2.17123	2.6E-4
399.7999	2.16971	2.7E-4
400.46523	2.16823	2.7E-4
401.13057	2.16677	2.7E-4
401.7959	2.16533	2.7E-4
402.46123	2.16391	2.7E-4
403.12656	2.16251	2.7E-4
403.7919	2.16114	2.7E-4
404.45723	2.15978	2.8E-4
405.12256	2.15844	2.8E-4
405.78789	2.15712	2.8E-4
406.45323	2.15582	2.8E-4
407.11856	2.15453	2.8E-4
407.78389	2.15326	2.8E-4
408.44922	2.152	2.9E-4
409.11456	2.15076	2.9E-4
409.77989	2.14953	2.9E-4
410.44522	2.14832	2.9E-4
411.11056	2.14712	2.9E-4
411.77589	2.14594	2.9E-4
412.44122	2.14477	3E-4
413.10655	2.14361	3E-4
413.77189	2.14246	3E-4
414.43722	2.14133	3E-4
415.10255	2.14021	3E-4
415.76788	2.1391	3E-4
416.43322	2.138	3E-4
417.09855	2.13691	3.1E-4
417.76388	2.13583	3.1E-4
418.42921	2.13477	3.1E-4
419.09455	2.13371	3.1E-4
419.75988	2.13267	3.1E-4
420.42521	2.13163	3.1E-4
421.09055	2.13061	3.2E-4
421.75588	2.12959	3.2E-4
422.42121	2.12858	3.2E-4
423.08654	2.12758	3.2E-4
423.75188	2.12659	3.2E-4
424.41721	2.12562	3.2E-4
425.08254	2.12464	3.3E-4
425.74787	2.12368	3.3E-4
426.41321	2.12273	3.3E-4
427.07854	2.12178	3.3E-4
427.74387	2.12084	3.3E-4
428.4092	2.11991	3.3E-4
429.07454	2.11899	3.4E-4
429.73987	2.11808	3.4E-4
430.4052	2.11717	3.4E-4
431.07054	2.11627	3.4E-4
431.73587	2.11538	3.4E-4
432.4012	2.11449	3.4E-4
433.06653	2.11361	3.5E-4
433.73187	2.11274	3.5E-4
434.3972	2.11188	3.5E-4
435.06253	2.11102	3.5E-4
435.72786	2.11017	3.5E-4
436.3932	2.10933	3.6E-4
437.05853	2.10849	3.6E-4
437.72386	2.10766	3.6E-4
438.38919	2.10683	3.6E-4
439.05453	2.10601	3.6E-4
439.71986	2.1052	3.6E-4
440.38519	2.10439	3.7E-4
441.05053	2.10359	3.7E-4
441.71586	2.10279	3.7E-4
442.38119	2.102	3.7E-4
443.04652	2.10122	3.7E-4
443.71186	2.10044	3.8E-4
444.37719	2.09967	3.8E-4
445.04252	2.0989	3.8E-4
445.70785	2.09814	3.8E-4
446.37319	2.09738	3.8E-4
447.03852	2.09663	3.8E-4
447.70385	2.09588	3.9E-4
448.36918	2.09514	3.9E-4
449.03452	2.0944	3.9E-4
449.69985	2.09367	3.9E-4
450.36518	2.09295	3.9E-4
451.03052	2.09222	4E-4
451.69585	2.09151	4E-4
452.36118	2.09079	4E-4
453.02651	2.09008	4E-4
453.69185	2.08938	4E-4
454.35718	2.08868	4.1E-4
455.02251	2.08799	4.1E-4
455.68784	2.0873	4.1E-4
456.35318	2.08661	4.1E-4
457.01851	2.08593	4.1E-4
457.68384	2.08525	4.1E-4
458.34917	2.08458	4.2E-4
459.01451	2.08391	4.2E-4
459.67984	2.08324	4.2E-4
460.34517	2.08258	4.2E-4
461.01051	2.08192	4.2E-4
461.67584	2.08127	4.3E-4
462.34117	2.08062	4.3E-4
463.0065	2.07998	4.3E-4
463.67184	2.07933	4.3E-4
464.33717	2.0787	4.3E-4
465.0025	2.07806	4.4E-4
465.66783	2.07743	4.4E-4
466.33317	2.0768	4.4E-4
466.9985	2.07618	4.4E-4
467.66383	2.07556	4.4E-4
468.32916	2.07494	4.5E-4
468.9945	2.07433	4.5E-4
469.65983	2.07372	4.5E-4
470.32516	2.07312	4.5E-4
470.9905	2.07251	4.5E-4
471.65583	2.07191	4.6E-4
472.32116	2.07132	4.6E-4
472.98649	2.07072	4.6E-4
473.65183	2.07013	4.6E-4
474.31716	2.06955	4.7E-4
474.98249	2.06896	4.7E-4
475.64782	2.06838	4.7E-4
476.31316	2.06781	4.7E-4
476.97849	2.06723	4.7E-4
477.64382	2.06666	4.8E-4
478.30915	2.06609	4.8E-4
478.97449	2.06553	4.8E-4
479.63982	2.06497	4.8E-4
480.30515	2.06441	4.8E-4
480.97049	2.06385	4.9E-4
481.63582	2.0633	4.9E-4
482.30115	2.06274	4.9E-4
482.96648	2.0622	4.9E-4
483.63182	2.06165	4.9E-4
484.29715	2.06111	5E-4
484.96248	2.06057	5E-4
485.62781	2.06003	5E-4
486.29315	2.05949	5E-4
486.95848	2.05896	5.1E-4
487.62381	2.05843	5.1E-4
488.28914	2.05791	5.1E-4
488.95448	2.05738	5.1E-4
489.61981	2.05686	5.1E-4
490.28514	2.05634	5.2E-4
490.95048	2.05582	5.2E-4
491.61581	2.05531	5.2E-4
492.28114	2.0548	5.2E-4
492.94647	2.05429	5.3E-4
493.61181	2.05378	5.3E-4
494.27714	2.05327	5.3E-4
494.94247	2.05277	5.3E-4
495.6078	2.05227	5.4E-4
496.27314	2.05177	5.4E-4
496.93847	2.05128	5.4E-4
497.6038	2.05078	5.4E-4
498.26913	2.05029	5.4E-4
498.93447	2.0498	5.5E-4
499.5998	2.04931	5.5E-4
500.26513	2.04883	5.5E-4
500.93047	2.04834	5.5E-4
501.5958	2.04786	5.6E-4
502.26113	2.04739	5.6E-4
502.92646	2.04691	5.6E-4
503.5918	2.04643	5.6E-4
504.25713	2.04596	5.7E-4
504.92246	2.04549	5.7E-4
505.58779	2.04502	5.7E-4
506.25313	2.04456	5.7E-4
506.91846	2.04409	5.7E-4
507.58379	2.04363	5.8E-4
508.24912	2.04317	5.8E-4
508.91446	2.04271	5.8E-4
509.57979	2.04225	5.8E-4
510.24512	2.0418	5.9E-4
510.91046	2.04134	5.9E-4
511.57579	2.04089	5.9E-4
512.24112	2.04044	5.9E-4
512.90645	2.03999	6E-4
513.57179	2.03955	6E-4
514.23712	2.0391	6E-4
514.90245	2.03866	6E-4
515.56778	2.03822	6.1E-4
516.23312	2.03778	6.1E-4
516.89845	2.03735	6.1E-4
517.56378	2.03691	6.1E-4
518.22911	2.03648	6.2E-4
518.89445	2.03604	6.2E-4
519.55978	2.03561	6.2E-4
520.22511	2.03518	6.2E-4
520.89045	2.03476	6.3E-4
521.55578	2.03433	6.3E-4
522.22111	2.03391	6.3E-4
522.88644	2.03349	6.3E-4
523.55178	2.03306	6.4E-4
524.21711	2.03265	6.4E-4
524.88244	2.03223	6.4E-4
525.54777	2.03181	6.4E-4
526.21311	2.0314	6.5E-4
526.87844	2.03098	6.5E-4
527.54377	2.03057	6.5E-4
528.2091	2.03016	6.5E-4
528.87444	2.02975	6.6E-4
529.53977	2.02935	6.6E-4
530.2051	2.02894	6.6E-4
530.87044	2.02854	6.7E-4
531.53577	2.02813	6.7E-4
532.2011	2.02773	6.7E-4
532.86643	2.02733	6.7E-4
533.53177	2.02693	6.8E-4
534.1971	2.02654	6.8E-4
534.86243	2.02614	6.8E-4
535.52776	2.02575	6.8E-4
536.1931	2.02535	6.9E-4
536.85843	2.02496	6.9E-4
537.52376	2.02457	6.9E-4
538.18909	2.02418	6.9E-4
538.85443	2.02379	7E-4
539.51976	2.02341	7E-4
540.18509	2.02302	7E-4
540.85043	2.02264	7.1E-4
541.51576	2.02225	7.1E-4
542.18109	2.02187	7.1E-4
542.84642	2.02149	7.1E-4
543.51176	2.02111	7.2E-4
544.17709	2.02074	7.2E-4
544.84242	2.02036	7.2E-4
545.50775	2.01998	7.2E-4
546.17309	2.01961	7.3E-4
546.83842	2.01924	7.3E-4
547.50375	2.01886	7.3E-4
548.16908	2.01849	7.4E-4
548.83442	2.01812	7.4E-4
549.49975	2.01776	7.4E-4
550.16508	2.01739	7.4E-4
550.83042	2.01702	7.5E-4
551.49575	2.01666	7.5E-4
552.16108	2.01629	7.5E-4
552.82641	2.01593	7.6E-4
553.49175	2.01557	7.6E-4
554.15708	2.01521	7.6E-4
554.82241	2.01485	7.6E-4
555.48774	2.01449	7.7E-4
556.15308	2.01413	7.7E-4
556.81841	2.01378	7.7E-4
557.48374	2.01342	7.8E-4
558.14907	2.01307	7.8E-4
558.81441	2.01272	7.8E-4
559.47974	2.01236	7.8E-4
560.14507	2.01201	7.9E-4
560.81041	2.01166	7.9E-4
561.47574	2.01131	7.9E-4
562.14107	2.01096	8E-4
562.8064	2.01062	8E-4
563.47174	2.01027	8E-4
564.13707	2.00993	8.1E-4
564.8024	2.00958	8.1E-4
565.46773	2.00924	8.1E-4
566.13307	2.0089	8.1E-4
566.7984	2.00856	8.2E-4
567.46373	2.00821	8.2E-4
568.12906	2.00788	8.2E-4
568.7944	2.00754	8.3E-4
569.45973	2.0072	8.3E-4
570.12506	2.00686	8.3E-4
570.7904	2.00653	8.4E-4
571.45573	2.00619	8.4E-4
572.12106	2.00586	8.4E-4
572.78639	2.00552	8.5E-4
573.45173	2.00519	8.5E-4
574.11706	2.00486	8.5E-4
574.78239	2.00453	8.5E-4
575.44772	2.0042	8.6E-4
576.11306	2.00387	8.6E-4
576.77839	2.00354	8.6E-4
577.44372	2.00322	8.7E-4
578.10905	2.00289	8.7E-4
578.77439	2.00257	8.7E-4
579.43972	2.00224	8.8E-4
580.10505	2.00192	8.8E-4
580.77039	2.00159	8.8E-4
581.43572	2.00127	8.9E-4
582.10105	2.00095	8.9E-4
582.76638	2.00063	8.9E-4
583.43172	2.00031	9E-4
584.09705	1.99999	9E-4
584.76238	1.99967	9E-4
585.42771	1.99935	9.1E-4
586.09305	1.99904	9.1E-4
586.75838	1.99872	9.1E-4
587.42371	1.99841	9.1E-4
588.08904	1.99809	9.2E-4
588.75438	1.99778	9.2E-4
589.41971	1.99746	9.2E-4
590.08504	1.99715	9.3E-4
590.75038	1.99684	9.3E-4
591.41571	1.99653	9.3E-4
592.08104	1.99622	9.4E-4
592.74637	1.99591	9.4E-4
593.41171	1.9956	9.4E-4
594.07704	1.99529	9.5E-4
594.74237	1.99499	9.5E-4
595.4077	1.99468	9.5E-4
596.07304	1.99437	9.6E-4
596.73837	1.99407	9.6E-4
597.4037	1.99376	9.6E-4
598.06903	1.99346	9.7E-4
598.73437	1.99316	9.7E-4
599.3997	1.99285	9.7E-4
600.06503	1.99255	9.8E-4
600.73037	1.99225	9.8E-4
601.3957	1.99195	9.8E-4
602.06103	1.99165	9.9E-4
602.72636	1.99135	9.9E-4
603.3917	1.99105	0.001
604.05703	1.99075	0.001
604.72236	1.99046	0.001
605.38769	1.99016	0.00101
606.05303	1.98986	0.00101
606.71836	1.98957	0.00101
607.38369	1.98927	0.00102
608.04902	1.98898	0.00102
608.71436	1.98868	0.00102
609.37969	1.98839	0.00103
610.04502	1.9881	0.00103
610.71036	1.98781	0.00103
611.37569	1.98751	0.00104
612.04102	1.98722	0.00104
612.70635	1.98693	0.00104
613.37169	1.98664	0.00105
614.03702	1.98635	0.00105
614.70235	1.98607	0.00105
615.36768	1.98578	0.00106
616.03302	1.98549	0.00106
616.69835	1.9852	0.00107
617.36368	1.98492	0.00107
618.02901	1.98463	0.00107
618.69435	1.98434	0.00108
619.35968	1.98406	0.00108
620.02501	1.98378	0.00108
620.69035	1.98349	0.00109
621.35568	1.98321	0.00109
622.02101	1.98293	0.00109
622.68634	1.98264	0.0011
623.35168	1.98236	0.0011
624.01701	1.98208	0.00111
624.68234	1.9818	0.00111
625.34767	1.98152	0.00111
626.01301	1.98124	0.00112
626.67834	1.98096	0.00112
627.34367	1.98068	0.00112
628.009	1.9804	0.00113
628.67434	1.98013	0.00113
629.33967	1.97985	0.00114
630.005	1.97957	0.00114
630.67034	1.9793	0.00114
631.33567	1.97902	0.00115
632.001	1.97874	0.00115
632.66633	1.97847	0.00115
633.33167	1.9782	0.00116
633.997	1.97792	0.00116
634.66233	1.97765	0.00117
635.32766	1.97738	0.00117
635.993	1.9771	0.00117
636.65833	1.97683	0.00118
637.32366	1.97656	0.00118
637.98899	1.97629	0.00119
638.65433	1.97602	0.00119
639.31966	1.97575	0.00119
639.98499	1.97548	0.0012
640.65033	1.97521	0.0012
641.31566	1.97494	0.0012
641.98099	1.97467	0.00121
642.64632	1.9744	0.00121
643.31166	1.97413	0.00122
643.97699	1.97386	0.00122
644.64232	1.9736	0.00122
645.30765	1.97333	0.00123
645.97299	1.97307	0.00123
646.63832	1.9728	0.00124
647.30365	1.97253	0.00124
647.96898	1.97227	0.00124
648.63432	1.972	0.00125
649.29965	1.97174	0.00125
649.96498	1.97148	0.00126
650.63032	1.97121	0.00126
651.29565	1.97095	0.00126
651.96098	1.97069	0.00127
652.62631	1.97042	0.00127
653.29165	1.97016	0.00128
653.95698	1.9699	0.00128
654.62231	1.96964	0.00128
655.28764	1.96938	0.00129
655.95298	1.96912	0.00129
656.61831	1.96886	0.0013
657.28364	1.9686	0.0013
657.94897	1.96834	0.00131
658.61431	1.96808	0.00131
659.27964	1.96782	0.00131
659.94497	1.96756	0.00132
660.61031	1.9673	0.00132
661.27564	1.96705	0.00133
661.94097	1.96679	0.00133
662.6063	1.96653	0.00133
663.27164	1.96628	0.00134
663.93697	1.96602	0.00134
664.6023	1.96576	0.00135
665.26763	1.96551	0.00135
665.93297	1.96525	0.00136
666.5983	1.965	0.00136
667.26363	1.96474	0.00136
667.92896	1.96449	0.00137
668.5943	1.96423	0.00137
669.25963	1.96398	0.00138
669.92496	1.96373	0.00138
670.5903	1.96347	0.00139
671.25563	1.96322	0.00139
671.92096	1.96297	0.00139
672.58629	1.96272	0.0014
673.25163	1.96246	0.0014
673.91696	1.96221	0.00141
674.58229	1.96196	0.00141
675.24762	1.96171	0.00142
675.91296	1.96146	0.00142
676.57829	1.96121	0.00142
677.24362	1.96096	0.00143
677.90895	1.96071	0.00143
678.57429	1.96046	0.00144
679.23962	1.96021	0.00144
679.90495	1.95996	0.00145
680.57029	1.95971	0.00145
681.23562	1.95947	0.00146
681.90095	1.95922	0.00146
682.56628	1.95897	0.00146
683.23162	1.95872	0.00147
683.89695	1.95847	0.00147
684.56228	1.95823	0.00148
685.22761	1.95798	0.00148
685.89295	1.95773	0.00149
686.55828	1.95749	0.00149
687.22361	1.95724	0.0015
687.88894	1.957	0.0015
688.55428	1.95675	0.0015
689.21961	1.95651	0.00151
689.88494	1.95626	0.00151
690.55028	1.95602	0.00152
691.21561	1.95577	0.00152
691.88094	1.95553	0.00153
692.54627	1.95528	0.00153
693.21161	1.95504	0.00154
693.87694	1.9548	0.00154
694.54227	1.95455	0.00155
695.2076	1.95431	0.00155
695.87294	1.95407	0.00156
696.53827	1.95382	0.00156
697.2036	1.95358	0.00156
697.86893	1.95334	0.00157
698.53427	1.9531	0.00157
699.1996	1.95286	0.00158
699.86493	1.95262	0.00158
700.53027	1.95237	0.00159
701.1956	1.95213	0.00159
701.86093	1.95189	0.0016
702.52626	1.95165	0.0016
703.1916	1.95141	0.00161
703.85693	1.95117	0.00161
704.52226	1.95093	0.00162
705.18759	1.95069	0.00162
705.85293	1.95045	0.00163
706.51826	1.95021	0.00163
707.18359	1.94997	0.00164
707.84892	1.94974	0.00164
708.51426	1.9495	0.00165
709.17959	1.94926	0.00165
709.84492	1.94902	0.00165
710.51026	1.94878	0.00166
711.17559	1.94854	0.00166
711.84092	1.94831	0.00167
712.50625	1.94807	0.00167
713.17159	1.94783	0.00168
713.83692	1.9476	0.00168
714.50225	1.94736	0.00169
715.16758	1.94712	0.00169
715.83292	1.94689	0.0017
716.49825	1.94665	0.0017
717.16358	1.94641	0.00171
717.82891	1.94618	0.00171
718.49425	1.94594	0.00172
719.15958	1.94571	0.00172
719.82491	1.94547	0.00173
720.49025	1.94524	0.00173
721.15558	1.945	0.00174
721.82091	1.94477	0.00174
722.48624	1.94453	0.00175
723.15158	1.9443	0.00175
723.81691	1.94406	0.00176
724.48224	1.94383	0.00176
725.14757	1.94359	0.00177
725.81291	1.94336	0.00177
726.47824	1.94313	0.00178
727.14357	1.94289	0.00178
727.8089	1.94266	0.00179
728.47424	1.94243	0.00179
729.13957	1.94219	0.0018
729.8049	1.94196	0.0018
730.47024	1.94173	0.00181
731.13557	1.9415	0.00182
731.8009	1.94126	0.00182
732.46623	1.94103	0.00183
733.13157	1.9408	0.00183
733.7969	1.94057	0.00184
734.46223	1.94034	0.00184
735.12756	1.94011	0.00185
735.7929	1.93987	0.00185
736.45823	1.93964	0.00186
737.12356	1.93941	0.00186
737.78889	1.93918	0.00187
738.45423	1.93895	0.00187
739.11956	1.93872	0.00188
739.78489	1.93849	0.00188
740.45023	1.93826	0.00189
741.11556	1.93803	0.00189
741.78089	1.9378	0.0019
742.44622	1.93757	0.0019
743.11156	1.93734	0.00191
743.77689	1.93711	0.00192
744.44222	1.93688	0.00192
745.10755	1.93665	0.00193
745.77289	1.93642	0.00193
746.43822	1.93619	0.00194
747.10355	1.93596	0.00194
747.76888	1.93573	0.00195
748.43422	1.9355	0.00195
749.09955	1.93528	0.00196
749.76488	1.93505	0.00196
750.43022	1.93482	0.00197
751.09555	1.93459	0.00198
751.76088	1.93436	0.00198
752.42621	1.93413	0.00199
753.09155	1.93391	0.00199
753.75688	1.93368	0.002
754.42221	1.93345	0.002
755.08754	1.93322	0.00201
755.75288	1.93299	0.00201
756.41821	1.93277	0.00202
757.08354	1.93254	0.00202
757.74887	1.93231	0.00203
758.41421	1.93209	0.00204
759.07954	1.93186	0.00204
759.74487	1.93163	0.00205
760.41021	1.93141	0.00205
761.07554	1.93118	0.00206
761.74087	1.93095	0.00206
762.4062	1.93073	0.00207
763.07154	1.9305	0.00208
763.73687	1.93027	0.00208
764.4022	1.93005	0.00209
765.06753	1.92982	0.00209
765.73287	1.9296	0.0021
766.3982	1.92937	0.0021
767.06353	1.92914	0.00211
767.72886	1.92892	0.00212
768.3942	1.92869	0.00212
769.05953	1.92847	0.00213
769.72486	1.92824	0.00213
770.3902	1.92802	0.00214
771.05553	1.92779	0.00214
771.72086	1.92757	0.00215
772.38619	1.92734	0.00216
773.05153	1.92712	0.00216
773.71686	1.92689	0.00217
774.38219	1.92667	0.00217
775.04752	1.92644	0.00218
775.71286	1.92622	0.00219
776.37819	1.92599	0.00219
777.04352	1.92577	0.0022
777.70885	1.92554	0.0022
778.37419	1.92532	0.00221
779.03952	1.9251	0.00221
779.70485	1.92487	0.00222
780.37019	1.92465	0.00223
781.03552	1.92442	0.00223
781.70085	1.9242	0.00224
782.36618	1.92398	0.00224
783.03152	1.92375	0.00225
783.69685	1.92353	0.00226
784.36218	1.92331	0.00226
785.02751	1.92308	0.00227
785.69285	1.92286	0.00227
786.35818	1.92263	0.00228
787.02351	1.92241	0.00229
787.68884	1.92219	0.00229
788.35418	1.92197	0.0023
789.01951	1.92174	0.0023
789.68484	1.92152	0.00231
790.35018	1.9213	0.00232
791.01551	1.92107	0.00232
791.68084	1.92085	0.00233
792.34617	1.92063	0.00234
793.01151	1.92041	0.00234
793.67684	1.92018	0.00235
794.34217	1.91996	0.00235
795.0075	1.91974	0.00236
795.67284	1.91951	0.00237
796.33817	1.91929	0.00237
797.0035	1.91907	0.00238
797.66883	1.91885	0.00238
798.33417	1.91863	0.00239
798.9995	1.9184	0.0024
799.66483	1.91818	0.0024
800.33017	1.91796	0.00241
800.9955	1.91774	0.00242
801.66083	1.91752	0.00242
802.32616	1.91729	0.00243
802.9915	1.91707	0.00244
803.65683	1.91685	0.00244
804.32216	1.91663	0.00245
804.98749	1.91641	0.00245
805.65283	1.91618	0.00246
806.31816	1.91596	0.00247
806.98349	1.91574	0.00247
807.64882	1.91552	0.00248
808.31416	1.9153	0.00249
808.97949	1.91508	0.00249
809.64482	1.91486	0.0025
810.31016	1.91463	0.00251
810.97549	1.91441	0.00251
811.64082	1.91419	0.00252
812.30615	1.91397	0.00252
812.97149	1.91375	0.00253
813.63682	1.91353	0.00254
814.30215	1.91331	0.00254
814.96748	1.91309	0.00255
815.63282	1.91286	0.00256
816.29815	1.91264	0.00256
