// thickness-independent fraction of light power (for rudimentary optics) between 0 and 1
simple transmission coefficient:
1

// wavelength-independent absorption coefficient 'a' according to I(z)=I0*exp(-a*z) in [1/m]
lambert beer absorption coefficient:
93340

// three-column refractive data for TMM calculations with wavelength [nm], n, k (must be tab-separated)
refractive data:
300	2.2807	0.3212
300.665	2.2807	0.3178
301.331	2.2807	0.3145
301.996	2.2806	0.3111
302.661	2.2805	0.3077
303.327	2.2804	0.3043
303.992	2.2803	0.301
304.657	2.2802	0.2976
305.323	2.28	0.2943
305.988	2.2798	0.291
306.653	2.2795	0.2876
307.319	2.2793	0.2843
307.984	2.279	0.281
308.649	2.2787	0.2777
309.315	2.2784	0.2744
309.98	2.278	0.2712
310.645	2.2777	0.2679
311.311	2.2773	0.2646
311.976	2.2769	0.2614
312.641	2.2764	0.2581
313.307	2.276	0.2549
313.972	2.2755	0.2517
314.637	2.275	0.2485
315.303	2.2744	0.2453
315.968	2.2739	0.2421
316.633	2.2733	0.2389
317.299	2.2727	0.2358
317.964	2.272	0.2326
318.629	2.2714	0.2295
319.295	2.2707	0.2263
319.96	2.27	0.2232
320.625	2.2693	0.2201
321.291	2.2686	0.217
321.956	2.2678	0.2139
322.621	2.267	0.2109
323.287	2.2662	0.2078
323.952	2.2654	0.2048
324.617	2.2645	0.2018
325.283	2.2636	0.1987
325.948	2.2627	0.1957
326.613	2.2618	0.1928
327.279	2.2609	0.1898
327.944	2.2599	0.1868
328.609	2.2589	0.1839
329.275	2.2579	0.1809
329.94	2.2569	0.178
330.605	2.2558	0.1751
331.271	2.2548	0.1722
331.936	2.2537	0.1694
332.601	2.2525	0.1665
333.267	2.2514	0.1637
333.932	2.2502	0.1609
334.597	2.2491	0.1581
335.263	2.2479	0.1553
335.928	2.2466	0.1525
336.593	2.2454	0.1497
337.259	2.2441	0.147
337.924	2.2428	0.1443
338.589	2.2415	0.1416
339.255	2.2402	0.1389
339.92	2.2389	0.1362
340.585	2.2375	0.1336
341.251	2.2361	0.1309
341.916	2.2347	0.1283
342.581	2.2333	0.1257
343.247	2.2318	0.1231
343.912	2.2304	0.1206
344.577	2.2289	0.118
345.243	2.2274	0.1155
345.908	2.2259	0.113
346.573	2.2243	0.1105
347.239	2.2228	0.1081
347.904	2.2212	0.1057
348.569	2.2196	0.1032
349.235	2.218	0.1008
349.9	2.2164	0.0985
350.565	2.2147	0.0961
351.231	2.213	0.0938
351.896	2.2114	0.0915
352.561	2.2097	0.0892
353.227	2.2079	0.0869
353.892	2.2062	0.0847
354.557	2.2044	0.0825
355.223	2.2027	0.0803
355.888	2.2009	0.0781
356.553	2.1991	0.0759
357.219	2.1973	0.0738
357.884	2.1954	0.0717
358.549	2.1936	0.0696
359.215	2.1917	0.0676
359.88	2.1898	0.0656
360.545	2.1879	0.0636
361.211	2.186	0.0616
361.876	2.1841	0.0596
362.541	2.1821	0.0577
363.207	2.1802	0.0558
363.872	2.1782	0.0539
364.537	2.1762	0.0521
365.203	2.1742	0.0503
365.868	2.1722	0.0485
366.533	2.1702	0.0467
367.199	2.1682	0.045
367.864	2.1661	0.0433
368.529	2.1641	0.0416
369.195	2.162	0.04
369.86	2.1599	0.0384
370.525	2.1579	0.0368
371.191	2.1558	0.0352
371.856	2.1536	0.0337
372.521	2.1515	0.0322
373.187	2.1494	0.0308
373.852	2.1473	0.0293
374.517	2.1451	0.0279
375.183	2.143	0.0266
375.848	2.1408	0.0252
376.513	2.1386	0.0239
377.179	2.1365	0.0226
377.844	2.1343	0.0214
378.509	2.1321	0.0202
379.175	2.1299	0.019
379.84	2.1277	0.0179
380.505	2.1255	0.0168
381.171	2.1233	0.0157
381.836	2.1211	0.0147
382.501	2.1189	0.0137
383.167	2.1167	0.0128
383.832	2.1145	0.0118
384.497	2.1123	0.011
385.163	2.1101	0.0101
385.828	2.1079	0.0093
386.493	2.1057	0.0085
387.159	2.1035	0.0078
387.824	2.1014	0.0071
388.489	2.0992	0.0065
389.155	2.097	0.0058
389.82	2.0948	0.0053
390.485	2.0927	0.0047
391.151	2.0905	0.0042
391.816	2.0884	0.0038
392.481	2.0863	0.0034
393.147	2.0842	0.003
393.812	2.0821	0.0027
394.477	2.0801	0.0024
395.143	2.078	0.0021
395.808	2.076	0.0019
396.473	2.074	0.0018
397.139	2.0721	0.0017
397.804	2.0702	0.0016
398.469	2.0683	0.0016
399.135	2.0665	0.0016
399.8	2.0648	0.0016
400.465	2.0631	0.0016
401.131	2.0614	0.0016
401.796	2.0598	0.0016
402.461	2.0582	0.0016
403.127	2.0566	0.0017
403.792	2.0551	0.0017
404.457	2.0536	0.0017
405.123	2.0521	0.0017
405.788	2.0507	0.0017
406.453	2.0492	0.0017
407.119	2.0478	0.0017
407.784	2.0464	0.0017
408.449	2.045	0.0017
409.115	2.0437	0.0017
409.78	2.0423	0.0018
410.445	2.041	0.0018
411.111	2.0397	0.0018
411.776	2.0384	0.0018
412.441	2.0371	0.0018
413.107	2.0359	0.0018
413.772	2.0346	0.0018
414.437	2.0334	0.0018
415.103	2.0322	0.0018
415.768	2.031	0.0018
416.433	2.0298	0.0018
417.099	2.0286	0.0019
417.764	2.0274	0.0019
418.429	2.0263	0.0019
419.095	2.0251	0.0019
419.76	2.024	0.0019
420.425	2.0229	0.0019
421.091	2.0217	0.0019
421.756	2.0206	0.0019
422.421	2.0195	0.0019
423.087	2.0185	0.002
423.752	2.0174	0.002
424.417	2.0163	0.002
425.083	2.0153	0.002
425.748	2.0142	0.002
426.413	2.0132	0.002
427.079	2.0122	0.002
427.744	2.0112	0.002
428.409	2.0102	0.002
429.075	2.0092	0.002
429.74	2.0082	0.0021
430.405	2.0072	0.0021
431.071	2.0062	0.0021
431.736	2.0053	0.0021
432.401	2.0043	0.0021
433.067	2.0033	0.0021
433.732	2.0024	0.0021
434.397	2.0015	0.0021
435.063	2.0005	0.0021
435.728	1.9996	0.0022
436.393	1.9987	0.0022
437.059	1.9978	0.0022
437.724	1.9969	0.0022
438.389	1.996	0.0022
439.055	1.9951	0.0022
439.72	1.9942	0.0022
440.385	1.9934	0.0022
441.051	1.9925	0.0022
441.716	1.9916	0.0022
442.381	1.9908	0.0023
443.047	1.9899	0.0023
443.712	1.9891	0.0023
444.377	1.9882	0.0023
445.043	1.9874	0.0023
445.708	1.9866	0.0023
446.373	1.9857	0.0023
447.039	1.9849	0.0023
447.704	1.9841	0.0024
448.369	1.9833	0.0024
449.035	1.9825	0.0024
449.7	1.9817	0.0024
450.365	1.9809	0.0024
451.031	1.9801	0.0024
451.696	1.9793	0.0024
452.361	1.9786	0.0024
453.027	1.9778	0.0024
453.692	1.977	0.0025
454.357	1.9762	0.0025
455.023	1.9755	0.0025
455.688	1.9747	0.0025
456.353	1.974	0.0025
457.019	1.9732	0.0025
457.684	1.9725	0.0025
458.349	1.9718	0.0025
459.015	1.971	0.0025
459.68	1.9703	0.0026
460.345	1.9696	0.0026
461.011	1.9688	0.0026
461.676	1.9681	0.0026
462.341	1.9674	0.0026
463.007	1.9667	0.0026
463.672	1.966	0.0026
464.337	1.9653	0.0026
465.003	1.9646	0.0027
465.668	1.9639	0.0027
466.333	1.9632	0.0027
466.998	1.9625	0.0027
467.664	1.9618	0.0027
468.329	1.9612	0.0027
468.994	1.9605	0.0027
469.66	1.9598	0.0027
470.325	1.9591	0.0028
470.99	1.9585	0.0028
471.656	1.9578	0.0028
472.321	1.9571	0.0028
472.986	1.9565	0.0028
473.652	1.9558	0.0028
474.317	1.9552	0.0028
474.982	1.9545	0.0028
475.648	1.9539	0.0029
476.313	1.9532	0.0029
476.978	1.9526	0.0029
477.644	1.952	0.0029
478.309	1.9513	0.0029
478.974	1.9507	0.0029
479.64	1.9501	0.0029
480.305	1.9495	0.003
480.97	1.9488	0.003
481.636	1.9482	0.003
482.301	1.9476	0.003
482.966	1.947	0.003
483.632	1.9464	0.003
484.297	1.9458	0.003
484.962	1.9452	0.003
485.628	1.9446	0.0031
486.293	1.944	0.0031
486.958	1.9434	0.0031
487.624	1.9428	0.0031
488.289	1.9422	0.0031
488.954	1.9416	0.0031
489.62	1.941	0.0031
490.285	1.9404	0.0032
490.95	1.9398	0.0032
491.616	1.9392	0.0032
492.281	1.9387	0.0032
492.946	1.9381	0.0032
493.612	1.9375	0.0032
494.277	1.937	0.0032
494.942	1.9364	0.0033
495.608	1.9358	0.0033
496.273	1.9353	0.0033
496.938	1.9347	0.0033
497.604	1.9341	0.0033
498.269	1.9336	0.0033
498.934	1.933	0.0033
499.6	1.9325	0.0034
500.265	1.9319	0.0034
500.93	1.9314	0.0034
501.596	1.9308	0.0034
502.261	1.9303	0.0034
502.926	1.9297	0.0034
503.592	1.9292	0.0034
504.257	1.9286	0.0035
504.922	1.9281	0.0035
505.588	1.9276	0.0035
506.253	1.927	0.0035
506.918	1.9265	0.0035
507.584	1.926	0.0035
508.249	1.9254	0.0035
508.914	1.9249	0.0036
509.58	1.9244	0.0036
510.245	1.9239	0.0036
510.91	1.9233	0.0036
511.576	1.9228	0.0036
512.241	1.9223	0.0036
512.906	1.9218	0.0036
513.572	1.9213	0.0037
514.237	1.9208	0.0037
514.902	1.9203	0.0037
515.568	1.9197	0.0037
516.233	1.9192	0.0037
516.898	1.9187	0.0037
517.564	1.9182	0.0038
518.229	1.9177	0.0038
518.894	1.9172	0.0038
519.56	1.9167	0.0038
520.225	1.9162	0.0038
520.89	1.9157	0.0038
521.556	1.9152	0.0038
522.221	1.9147	0.0039
522.886	1.9142	0.0039
523.552	1.9138	0.0039
524.217	1.9133	0.0039
524.882	1.9128	0.0039
525.548	1.9123	0.0039
526.213	1.9118	0.004
526.878	1.9113	0.004
527.544	1.9108	0.004
528.209	1.9104	0.004
528.874	1.9099	0.004
529.54	1.9094	0.004
530.205	1.9089	0.0041
530.87	1.9084	0.0041
531.536	1.908	0.0041
532.201	1.9075	0.0041
532.866	1.907	0.0041
533.532	1.9066	0.0041
534.197	1.9061	0.0042
534.862	1.9056	0.0042
535.528	1.9052	0.0042
536.193	1.9047	0.0042
536.858	1.9042	0.0042
537.524	1.9038	0.0042
538.189	1.9033	0.0043
538.854	1.9028	0.0043
539.52	1.9024	0.0043
540.185	1.9019	0.0043
540.85	1.9015	0.0043
541.516	1.901	0.0043
542.181	1.9006	0.0044
542.846	1.9001	0.0044
543.512	1.8996	0.0044
544.177	1.8992	0.0044
544.842	1.8987	0.0044
545.508	1.8983	0.0044
546.173	1.8979	0.0045
546.838	1.8974	0.0045
547.504	1.897	0.0045
548.169	1.8965	0.0045
548.834	1.8961	0.0045
549.5	1.8956	0.0045
550.165	1.8952	0.0046
550.83	1.8947	0.0046
551.496	1.8943	0.0046
552.161	1.8939	0.0046
552.826	1.8934	0.0046
553.492	1.893	0.0046
554.157	1.8926	0.0047
554.822	1.8921	0.0047
555.488	1.8917	0.0047
556.153	1.8913	0.0047
556.818	1.8908	0.0047
557.484	1.8904	0.0048
558.149	1.89	0.0048
558.814	1.8895	0.0048
559.48	1.8891	0.0048
560.145	1.8887	0.0048
560.81	1.8882	0.0048
561.476	1.8878	0.0049
562.141	1.8874	0.0049
562.806	1.887	0.0049
563.472	1.8866	0.0049
564.137	1.8861	0.0049
564.802	1.8857	0.005
565.468	1.8853	0.005
566.133	1.8849	0.005
566.798	1.8844	0.005
567.464	1.884	0.005
568.129	1.8836	0.0051
568.794	1.8832	0.0051
569.46	1.8828	0.0051
570.125	1.8824	0.0051
570.79	1.882	0.0051
571.456	1.8815	0.0051
572.121	1.8811	0.0052
572.786	1.8807	0.0052
573.452	1.8803	0.0052
574.117	1.8799	0.0052
574.782	1.8795	0.0052
575.448	1.8791	0.0053
576.113	1.8787	0.0053
576.778	1.8783	0.0053
577.444	1.8779	0.0053
578.109	1.8774	0.0053
578.774	1.877	0.0054
579.44	1.8766	0.0054
580.105	1.8762	0.0054
580.77	1.8758	0.0054
581.436	1.8754	0.0054
582.101	1.875	0.0055
582.766	1.8746	0.0055
583.432	1.8742	0.0055
584.097	1.8738	0.0055
584.762	1.8734	0.0055
585.428	1.873	0.0056
586.093	1.8726	0.0056
586.758	1.8722	0.0056
587.424	1.8718	0.0056
588.089	1.8714	0.0056
588.754	1.871	0.0057
589.42	1.8707	0.0057
590.085	1.8703	0.0057
590.75	1.8699	0.0057
591.416	1.8695	0.0057
592.081	1.8691	0.0058
592.746	1.8687	0.0058
593.412	1.8683	0.0058
594.077	1.8679	0.0058
594.742	1.8675	0.0058
595.408	1.8671	0.0059
596.073	1.8667	0.0059
596.738	1.8663	0.0059
597.404	1.866	0.0059
598.069	1.8656	0.0059
598.734	1.8652	0.006
599.4	1.8648	0.006
600.065	1.8644	0.006
600.73	1.864	0.006
601.396	1.8636	0.0061
602.061	1.8633	0.0061
602.726	1.8629	0.0061
603.392	1.8625	0.0061
604.057	1.8621	0.0061
604.722	1.8617	0.0062
605.388	1.8613	0.0062
606.053	1.861	0.0062
606.718	1.8606	0.0062
607.384	1.8602	0.0062
608.049	1.8598	0.0063
608.714	1.8594	0.0063
609.38	1.8591	0.0063
610.045	1.8587	0.0063
610.71	1.8583	0.0064
611.376	1.8579	0.0064
612.041	1.8576	0.0064
612.706	1.8572	0.0064
613.372	1.8568	0.0064
614.037	1.8564	0.0065
614.702	1.8561	0.0065
615.368	1.8557	0.0065
616.033	1.8553	0.0065
616.698	1.8549	0.0066
617.364	1.8546	0.0066
618.029	1.8542	0.0066
618.694	1.8538	0.0066
619.36	1.8534	0.0066
620.025	1.8531	0.0067
620.69	1.8527	0.0067
621.356	1.8523	0.0067
622.021	1.852	0.0067
622.686	1.8516	0.0068
623.352	1.8512	0.0068
624.017	1.8509	0.0068
624.682	1.8505	0.0068
625.348	1.8501	0.0069
626.013	1.8497	0.0069
626.678	1.8494	0.0069
627.344	1.849	0.0069
628.009	1.8486	0.0069
628.674	1.8483	0.007
629.34	1.8479	0.007
630.005	1.8475	0.007
630.67	1.8472	0.007
631.336	1.8468	0.0071
632.001	1.8464	0.0071
632.666	1.8461	0.0071
633.332	1.8457	0.0071
633.997	1.8454	0.0072
634.662	1.845	0.0072
635.328	1.8446	0.0072
635.993	1.8443	0.0072
636.658	1.8439	0.0073
637.324	1.8435	0.0073
637.989	1.8432	0.0073
638.654	1.8428	0.0073
639.32	1.8425	0.0074
639.985	1.8421	0.0074
640.65	1.8417	0.0074
641.316	1.8414	0.0074
641.981	1.841	0.0074
642.646	1.8407	0.0075
643.312	1.8403	0.0075
643.977	1.8399	0.0075
644.642	1.8396	0.0075
645.308	1.8392	0.0076
645.973	1.8389	0.0076
646.638	1.8385	0.0076
647.304	1.8381	0.0076
647.969	1.8378	0.0077
648.634	1.8374	0.0077
649.3	1.8371	0.0077
649.965	1.8367	0.0077
650.63	1.8364	0.0078
651.296	1.836	0.0078
651.961	1.8356	0.0078
652.626	1.8353	0.0078
653.292	1.8349	0.0079
653.957	1.8346	0.0079
654.622	1.8342	0.0079
655.288	1.8339	0.008
655.953	1.8335	0.008
656.618	1.8332	0.008
657.284	1.8328	0.008
657.949	1.8324	0.0081
658.614	1.8321	0.0081
659.28	1.8317	0.0081
659.945	1.8314	0.0081
660.61	1.831	0.0082
661.276	1.8307	0.0082
661.941	1.8303	0.0082
662.606	1.83	0.0082
663.272	1.8296	0.0083
663.937	1.8293	0.0083
664.602	1.8289	0.0083
665.268	1.8286	0.0083
665.933	1.8282	0.0084
666.598	1.8279	0.0084
667.264	1.8275	0.0084
667.929	1.8272	0.0084
668.594	1.8268	0.0085
669.26	1.8265	0.0085
669.925	1.8261	0.0085
670.59	1.8258	0.0086
671.256	1.8254	0.0086
671.921	1.8251	0.0086
672.586	1.8247	0.0086
673.252	1.8244	0.0087
673.917	1.824	0.0087
674.582	1.8237	0.0087
675.248	1.8233	0.0087
675.913	1.823	0.0088
676.578	1.8226	0.0088
677.244	1.8223	0.0088
677.909	1.8219	0.0089
678.574	1.8216	0.0089
679.24	1.8212	0.0089
679.905	1.8209	0.0089
680.57	1.8205	0.009
681.236	1.8202	0.009
681.901	1.8198	0.009
682.566	1.8195	0.0091
683.232	1.8191	0.0091
683.897	1.8188	0.0091
684.562	1.8185	0.0091
685.228	1.8181	0.0092
685.893	1.8178	0.0092
686.558	1.8174	0.0092
687.224	1.8171	0.0093
687.889	1.8167	0.0093
688.554	1.8164	0.0093
689.22	1.816	0.0093
689.885	1.8157	0.0094
690.55	1.8153	0.0094
691.216	1.815	0.0094
691.881	1.8146	0.0095
692.546	1.8143	0.0095
693.212	1.814	0.0095
693.877	1.8136	0.0095
694.542	1.8133	0.0096
695.208	1.8129	0.0096
695.873	1.8126	0.0096
696.538	1.8122	0.0097
697.204	1.8119	0.0097
697.869	1.8115	0.0097
698.534	1.8112	0.0097
699.2	1.8109	0.0098
699.865	1.8105	0.0098
700.53	1.8102	0.0098
701.196	1.8098	0.0099
701.861	1.8095	0.0099
702.526	1.8091	0.0099
703.192	1.8088	0.01
703.857	1.8085	0.01
704.522	1.8081	0.01
705.188	1.8078	0.01
705.853	1.8074	0.0101
706.518	1.8071	0.0101
707.184	1.8067	0.0101
707.849	1.8064	0.0102
708.514	1.8061	0.0102
709.18	1.8057	0.0102
709.845	1.8054	0.0103
710.51	1.805	0.0103
711.176	1.8047	0.0103
711.841	1.8043	0.0103
712.506	1.804	0.0104
713.172	1.8037	0.0104
713.837	1.8033	0.0104
714.502	1.803	0.0105
715.168	1.8026	0.0105
715.833	1.8023	0.0105
716.498	1.8019	0.0106
717.164	1.8016	0.0106
717.829	1.8013	0.0106
718.494	1.8009	0.0107
719.16	1.8006	0.0107
719.825	1.8002	0.0107
720.49	1.7999	0.0108
721.156	1.7996	0.0108
721.821	1.7992	0.0108
722.486	1.7989	0.0109
723.152	1.7985	0.0109
723.817	1.7982	0.0109
724.482	1.7978	0.0109
725.148	1.7975	0.011
725.813	1.7972	0.011
726.478	1.7968	0.011
727.144	1.7965	0.0111
727.809	1.7961	0.0111
728.474	1.7958	0.0111
729.14	1.7955	0.0112
729.805	1.7951	0.0112
730.47	1.7948	0.0112
731.136	1.7944	0.0113
731.801	1.7941	0.0113
732.466	1.7937	0.0113
733.132	1.7934	0.0114
733.797	1.7931	0.0114
734.462	1.7927	0.0114
735.128	1.7924	0.0115
735.793	1.792	0.0115
736.458	1.7917	0.0115
737.124	1.7914	0.0116
737.789	1.791	0.0116
738.454	1.7907	0.0116
739.12	1.7903	0.0117
739.785	1.79	0.0117
740.45	1.7897	0.0117
741.116	1.7893	0.0118
741.781	1.789	0.0118
742.446	1.7886	0.0118
743.112	1.7883	0.0119
743.777	1.788	0.0119
744.442	1.7876	0.0119
745.108	1.7873	0.012
745.773	1.7869	0.012
746.438	1.7866	0.012
747.104	1.7863	0.0121
747.769	1.7859	0.0121
748.434	1.7856	0.0121
749.1	1.7852	0.0122
749.765	1.7849	0.0122
750.43	1.7845	0.0122
751.096	1.7842	0.0123
751.761	1.7839	0.0123
752.426	1.7835	0.0124
753.092	1.7832	0.0124
753.757	1.7828	0.0124
754.422	1.7825	0.0125
755.088	1.7822	0.0125
755.753	1.7818	0.0125
756.418	1.7815	0.0126
757.084	1.7811	0.0126
757.749	1.7808	0.0126
758.414	1.7805	0.0127
759.08	1.7801	0.0127
759.745	1.7798	0.0127
760.41	1.7794	0.0128
761.076	1.7791	0.0128
761.741	1.7788	0.0129
762.406	1.7784	0.0129
763.072	1.7781	0.0129
763.737	1.7777	0.013
764.402	1.7774	0.013
765.068	1.777	0.013
765.733	1.7767	0.0131
766.398	1.7764	0.0131
767.064	1.776	0.0131
767.729	1.7757	0.0132
768.394	1.7753	0.0132
769.06	1.775	0.0133
769.725	1.7747	0.0133
770.39	1.7743	0.0133
771.056	1.774	0.0134
771.721	1.7736	0.0134
772.386	1.7733	0.0134
773.052	1.7729	0.0135
773.717	1.7726	0.0135
774.382	1.7723	0.0135
775.048	1.7719	0.0136
775.713	1.7716	0.0136
776.378	1.7712	0.0137
777.044	1.7709	0.0137
777.709	1.7706	0.0137
778.374	1.7702	0.0138
779.04	1.7699	0.0138
779.705	1.7695	0.0138
780.37	1.7692	0.0139
781.036	1.7688	0.0139
781.701	1.7685	0.014
782.366	1.7682	0.014
783.032	1.7678	0.014
783.697	1.7675	0.0141
784.362	1.7671	0.0141
785.028	1.7668	0.0142
785.693	1.7664	0.0142
786.358	1.7661	0.0142
787.024	1.7658	0.0143
787.689	1.7654	0.0143
788.354	1.7651	0.0143
789.02	1.7647	0.0144
789.685	1.7644	0.0144
790.35	1.764	0.0145
791.016	1.7637	0.0145
791.681	1.7634	0.0145
792.346	1.763	0.0146
793.012	1.7627	0.0146
793.677	1.7623	0.0147
794.342	1.762	0.0147
795.008	1.7616	0.0147
795.673	1.7613	0.0148
796.338	1.761	0.0148
797.004	1.7606	0.0149
797.669	1.7603	0.0149
798.334	1.7599	0.0149
798.999	1.7596	0.015
799.665	1.7592	0.015
800.33	1.7589	0.0151
800.995	1.7585	0.0151
801.661	1.7582	0.0151
802.326	1.7579	0.0152
802.991	1.7575	0.0152
803.657	1.7572	0.0153
804.322	1.7568	0.0153
804.987	1.7565	0.0153
805.653	1.7561	0.0154
806.318	1.7558	0.0154
806.983	1.7554	0.0155
807.649	1.7551	0.0155
808.314	1.7548	0.0156
808.979	1.7544	0.0156
809.645	1.7541	0.0156
810.31	1.7537	0.0157
810.975	1.7534	0.0157
811.641	1.753	0.0158
812.306	1.7527	0.0158
812.971	1.7523	0.0158
813.637	1.752	0.0159
814.302	1.7516	0.0159
814.967	1.7513	0.016
815.633	1.7509	0.016
816.298	1.7506	0.0161
816.963	1.7503	0.0161
817.629	1.7499	0.0161
818.294	1.7496	0.0162
818.959	1.7492	0.0162
819.625	1.7489	0.0163
820.29	1.7485	0.0163
820.955	1.7482	0.0163
821.621	1.7478	0.0164
822.286	1.7475	0.0164
822.951	1.7471	0.0165
823.617	1.7468	0.0165
824.282	1.7464	0.0166
824.947	1.7461	0.0166
825.613	1.7457	0.0167
826.278	1.7454	0.0167
826.943	1.745	0.0167
827.609	1.7447	0.0168
828.274	1.7443	0.0168
828.939	1.744	0.0169
829.605	1.7436	0.0169
830.27	1.7433	0.017
830.935	1.743	0.017
831.601	1.7426	0.017
832.266	1.7423	0.0171
832.931	1.7419	0.0171
833.597	1.7416	0.0172
834.262	1.7412	0.0172
834.927	1.7409	0.0173
835.593	1.7405	0.0173
836.258	1.7402	0.0174
836.923	1.7398	0.0174
837.589	1.7395	0.0174
838.254	1.7391	0.0175
838.919	1.7388	0.0175
839.585	1.7384	0.0176
840.25	1.7381	0.0176
840.915	1.7377	0.0177
841.581	1.7374	0.0177
842.246	1.737	0.0178
842.911	1.7367	0.0178
843.577	1.7363	0.0179
844.242	1.7359	0.0179
844.907	1.7356	0.0179
845.573	1.7352	0.018
846.238	1.7349	0.018
846.903	1.7345	0.0181
847.569	1.7342	0.0181
848.234	1.7338	0.0182
848.899	1.7335	0.0182
849.565	1.7331	0.0183
850.23	1.7328	0.0183
850.895	1.7324	0.0184
851.561	1.7321	0.0184
852.226	1.7317	0.0185
852.891	1.7314	0.0185
853.557	1.731	0.0185
854.222	1.7307	0.0186
854.887	1.7303	0.0186
855.553	1.73	0.0187
856.218	1.7296	0.0187
856.883	1.7292	0.0188
857.549	1.7289	0.0188
858.214	1.7285	0.0189
858.879	1.7282	0.0189
859.545	1.7278	0.019
860.21	1.7275	0.019
860.875	1.7271	0.0191
861.541	1.7268	0.0191
862.206	1.7264	0.0192
862.871	1.7261	0.0192
863.537	1.7257	0.0193
864.202	1.7253	0.0193
864.867	1.725	0.0194
865.533	1.7246	0.0194
866.198	1.7243	0.0195
866.863	1.7239	0.0195
867.529	1.7236	0.0195
868.194	1.7232	0.0196
868.859	1.7229	0.0196
869.525	1.7225	0.0197
870.19	1.7221	0.0197
870.855	1.7218	0.0198
871.521	1.7214	0.0198
872.186	1.7211	0.0199
872.851	1.7207	0.0199
873.517	1.7204	0.02
874.182	1.72	0.02
874.847	1.7196	0.0201
875.513	1.7193	0.0201
876.178	1.7189	0.0202
876.843	1.7186	0.0202
877.509	1.7182	0.0203
878.174	1.7178	0.0203
878.839	1.7175	0.0204
879.505	1.7171	0.0204
880.17	1.7168	0.0205
880.835	1.7164	0.0205
881.501	1.7161	0.0206
882.166	1.7157	0.0206
882.831	1.7153	0.0207
883.497	1.715	0.0207
884.162	1.7146	0.0208
884.827	1.7143	0.0208
885.493	1.7139	0.0209
886.158	1.7135	0.0209
886.823	1.7132	0.021
887.489	1.7128	0.0211
888.154	1.7124	0.0211
888.819	1.7121	0.0212
889.485	1.7117	0.0212
890.15	1.7114	0.0213
890.815	1.711	0.0213
891.481	1.7106	0.0214
892.146	1.7103	0.0214
892.811	1.7099	0.0215
893.477	1.7096	0.0215
894.142	1.7092	0.0216
894.807	1.7088	0.0216
895.473	1.7085	0.0217
896.138	1.7081	0.0217
896.803	1.7077	0.0218
897.469	1.7074	0.0218
898.134	1.707	0.0219
898.799	1.7066	0.0219
899.465	1.7063	0.022
900.13	1.7059	0.022
900.795	1.7056	0.0221
901.461	1.7052	0.0222
