// thickness-independent fraction of light power (for rudimentary optics) between 0 and 1
simple transmission coefficient:
1

// wavelength-independent absorption coefficient 'a' according to I(z)=I0*exp(-a*z) in [1/m]
lambert beer absorption coefficient:
93340

// three-column refractive data for TMM calculations with wavelength [nm], n, k (must be tab-separated)
refractive data:
300	2.1212	0.2757
300.665	2.1213	0.2733
301.331	2.1214	0.271
301.996	2.1215	0.2687
302.661	2.1216	0.2663
303.327	2.1217	0.264
303.992	2.1218	0.2617
304.657	2.1218	0.2593
305.323	2.1219	0.257
305.988	2.1219	0.2547
306.653	2.1219	0.2524
307.319	2.1219	0.2501
307.984	2.1219	0.2478
308.649	2.1219	0.2455
309.315	2.1218	0.2432
309.98	2.1218	0.2409
310.645	2.1217	0.2386
311.311	2.1216	0.2364
311.976	2.1215	0.2341
312.641	2.1214	0.2318
313.307	2.1213	0.2296
313.972	2.1211	0.2273
314.637	2.1209	0.2251
315.303	2.1208	0.2228
315.968	2.1206	0.2206
316.633	2.1204	0.2184
317.299	2.1202	0.2161
317.964	2.1199	0.2139
318.629	2.1197	0.2117
319.295	2.1194	0.2095
319.96	2.1192	0.2073
320.625	2.1189	0.2051
321.291	2.1186	0.2029
321.956	2.1183	0.2007
322.621	2.118	0.1985
323.287	2.1176	0.1964
323.952	2.1173	0.1942
324.617	2.1169	0.192
325.283	2.1165	0.1899
325.948	2.1161	0.1878
326.613	2.1157	0.1856
327.279	2.1153	0.1835
327.944	2.1149	0.1814
328.609	2.1144	0.1792
329.275	2.114	0.1771
329.94	2.1135	0.175
330.605	2.113	0.1729
331.271	2.1125	0.1709
331.936	2.112	0.1688
332.601	2.1115	0.1667
333.267	2.111	0.1646
333.932	2.1104	0.1626
334.597	2.1098	0.1605
335.263	2.1093	0.1585
335.928	2.1087	0.1565
336.593	2.1081	0.1545
337.259	2.1075	0.1524
337.924	2.1068	0.1504
338.589	2.1062	0.1484
339.255	2.1055	0.1464
339.92	2.1049	0.1445
340.585	2.1042	0.1425
341.251	2.1035	0.1405
341.916	2.1028	0.1386
342.581	2.1021	0.1366
343.247	2.1014	0.1347
343.912	2.1006	0.1328
344.577	2.0999	0.1308
345.243	2.0991	0.1289
345.908	2.0983	0.127
346.573	2.0976	0.1252
347.239	2.0968	0.1233
347.904	2.096	0.1214
348.569	2.0951	0.1195
349.235	2.0943	0.1177
349.9	2.0934	0.1159
350.565	2.0926	0.114
351.231	2.0917	0.1122
351.896	2.0908	0.1104
352.561	2.0899	0.1086
353.227	2.089	0.1068
353.892	2.0881	0.105
354.557	2.0872	0.1033
355.223	2.0863	0.1015
355.888	2.0853	0.0998
356.553	2.0843	0.098
357.219	2.0834	0.0963
357.884	2.0824	0.0946
358.549	2.0814	0.0929
359.215	2.0804	0.0912
359.88	2.0794	0.0895
360.545	2.0783	0.0879
361.211	2.0773	0.0862
361.876	2.0763	0.0846
362.541	2.0752	0.0829
363.207	2.0741	0.0813
363.872	2.0731	0.0797
364.537	2.072	0.0781
365.203	2.0709	0.0765
365.868	2.0698	0.075
366.533	2.0686	0.0734
367.199	2.0675	0.0719
367.864	2.0664	0.0703
368.529	2.0652	0.0688
369.195	2.0641	0.0673
369.86	2.0629	0.0658
370.525	2.0617	0.0643
371.191	2.0605	0.0629
371.856	2.0593	0.0614
372.521	2.0581	0.06
373.187	2.0569	0.0585
373.852	2.0557	0.0571
374.517	2.0544	0.0557
375.183	2.0532	0.0544
375.848	2.0519	0.053
376.513	2.0507	0.0516
377.179	2.0494	0.0503
377.844	2.0481	0.049
378.509	2.0469	0.0477
379.175	2.0456	0.0464
379.84	2.0443	0.0451
380.505	2.043	0.0438
381.171	2.0416	0.0426
381.836	2.0403	0.0413
382.501	2.039	0.0401
383.167	2.0376	0.0389
383.832	2.0363	0.0377
384.497	2.0349	0.0366
385.163	2.0336	0.0354
385.828	2.0322	0.0343
386.493	2.0308	0.0332
387.159	2.0295	0.0321
387.824	2.0281	0.031
388.489	2.0267	0.0299
389.155	2.0253	0.0288
389.82	2.0239	0.0278
390.485	2.0225	0.0268
391.151	2.0211	0.0258
391.816	2.0197	0.0248
392.481	2.0182	0.0238
393.147	2.0168	0.0229
393.812	2.0154	0.0219
394.477	2.0139	0.021
395.143	2.0125	0.0201
395.808	2.011	0.0192
396.473	2.0096	0.0184
397.139	2.0081	0.0175
397.804	2.0067	0.0167
398.469	2.0052	0.0159
399.135	2.0038	0.0151
399.8	2.0023	0.0144
400.465	2.0008	0.0136
401.131	1.9994	0.0129
401.796	1.9979	0.0122
402.461	1.9964	0.0115
403.127	1.995	0.0109
403.792	1.9935	0.0102
404.457	1.992	0.0096
405.123	1.9906	0.009
405.788	1.9891	0.0084
406.453	1.9876	0.0078
407.119	1.9862	0.0073
407.784	1.9847	0.0068
408.449	1.9832	0.0063
409.115	1.9818	0.0058
409.78	1.9803	0.0053
410.445	1.9788	0.0049
411.111	1.9774	0.0045
411.776	1.9759	0.0041
412.441	1.9745	0.0037
413.107	1.9731	0.0034
413.772	1.9716	0.0031
414.437	1.9702	0.0028
415.103	1.9688	0.0025
415.768	1.9674	0.0022
416.433	1.966	0.002
417.099	1.9646	0.0018
417.764	1.9632	0.0016
418.429	1.9619	0.0015
419.095	1.9605	0.0013
419.76	1.9592	0.0012
420.425	1.9579	0.0011
421.091	1.9566	0.0011
421.756	1.9553	0.001
422.421	1.9541	0.001
423.087	1.9529	0.001
423.752	1.9517	0.001
424.417	1.9506	0.001
425.083	1.9495	0.001
425.748	1.9484	0.001
426.413	1.9473	0.0011
427.079	1.9462	0.0011
427.744	1.9452	0.0011
428.409	1.9441	0.0011
429.075	1.9431	0.0011
429.74	1.9421	0.0011
430.405	1.9411	0.0011
431.071	1.9401	0.0011
431.736	1.9392	0.0011
432.401	1.9382	0.0011
433.067	1.9373	0.0011
433.732	1.9363	0.0011
434.397	1.9354	0.0011
435.063	1.9345	0.0011
435.728	1.9336	0.0011
436.393	1.9327	0.0011
437.059	1.9318	0.0011
437.724	1.931	0.0012
438.389	1.9301	0.0012
439.055	1.9292	0.0012
439.72	1.9284	0.0012
440.385	1.9275	0.0012
441.051	1.9267	0.0012
441.716	1.9259	0.0012
442.381	1.9251	0.0012
443.047	1.9243	0.0012
443.712	1.9235	0.0012
444.377	1.9227	0.0012
445.043	1.9219	0.0012
445.708	1.9211	0.0012
446.373	1.9203	0.0012
447.039	1.9195	0.0012
447.704	1.9188	0.0012
448.369	1.918	0.0013
449.035	1.9173	0.0013
449.7	1.9165	0.0013
450.365	1.9158	0.0013
451.031	1.915	0.0013
451.696	1.9143	0.0013
452.361	1.9136	0.0013
453.027	1.9129	0.0013
453.692	1.9121	0.0013
454.357	1.9114	0.0013
455.023	1.9107	0.0013
455.688	1.91	0.0013
456.353	1.9093	0.0013
457.019	1.9086	0.0013
457.684	1.908	0.0013
458.349	1.9073	0.0013
459.015	1.9066	0.0014
459.68	1.9059	0.0014
460.345	1.9053	0.0014
461.011	1.9046	0.0014
461.676	1.9039	0.0014
462.341	1.9033	0.0014
463.007	1.9026	0.0014
463.672	1.902	0.0014
464.337	1.9013	0.0014
465.003	1.9007	0.0014
465.668	1.9001	0.0014
466.333	1.8994	0.0014
466.998	1.8988	0.0014
467.664	1.8982	0.0014
468.329	1.8976	0.0015
468.994	1.897	0.0015
469.66	1.8963	0.0015
470.325	1.8957	0.0015
470.99	1.8951	0.0015
471.656	1.8945	0.0015
472.321	1.8939	0.0015
472.986	1.8933	0.0015
473.652	1.8927	0.0015
474.317	1.8921	0.0015
474.982	1.8916	0.0015
475.648	1.891	0.0015
476.313	1.8904	0.0015
476.978	1.8898	0.0015
477.644	1.8892	0.0016
478.309	1.8887	0.0016
478.974	1.8881	0.0016
479.64	1.8875	0.0016
480.305	1.887	0.0016
480.97	1.8864	0.0016
481.636	1.8859	0.0016
482.301	1.8853	0.0016
482.966	1.8848	0.0016
483.632	1.8842	0.0016
484.297	1.8837	0.0016
484.962	1.8831	0.0016
485.628	1.8826	0.0016
486.293	1.882	0.0016
486.958	1.8815	0.0017
487.624	1.881	0.0017
488.289	1.8804	0.0017
488.954	1.8799	0.0017
489.62	1.8794	0.0017
490.285	1.8789	0.0017
490.95	1.8783	0.0017
491.616	1.8778	0.0017
492.281	1.8773	0.0017
492.946	1.8768	0.0017
493.612	1.8763	0.0017
494.277	1.8758	0.0017
494.942	1.8753	0.0017
495.608	1.8748	0.0018
496.273	1.8742	0.0018
496.938	1.8737	0.0018
497.604	1.8732	0.0018
498.269	1.8727	0.0018
498.934	1.8723	0.0018
499.6	1.8718	0.0018
500.265	1.8713	0.0018
500.93	1.8708	0.0018
501.596	1.8703	0.0018
502.261	1.8698	0.0018
502.926	1.8693	0.0018
503.592	1.8688	0.0019
504.257	1.8684	0.0019
504.922	1.8679	0.0019
505.588	1.8674	0.0019
506.253	1.8669	0.0019
506.918	1.8665	0.0019
507.584	1.866	0.0019
508.249	1.8655	0.0019
508.914	1.865	0.0019
509.58	1.8646	0.0019
510.245	1.8641	0.0019
510.91	1.8636	0.0019
511.576	1.8632	0.002
512.241	1.8627	0.002
512.906	1.8623	0.002
513.572	1.8618	0.002
514.237	1.8614	0.002
514.902	1.8609	0.002
515.568	1.8605	0.002
516.233	1.86	0.002
516.898	1.8596	0.002
517.564	1.8591	0.002
518.229	1.8587	0.002
518.894	1.8582	0.002
519.56	1.8578	0.0021
520.225	1.8573	0.0021
520.89	1.8569	0.0021
521.556	1.8565	0.0021
522.221	1.856	0.0021
522.886	1.8556	0.0021
523.552	1.8551	0.0021
524.217	1.8547	0.0021
524.882	1.8543	0.0021
525.548	1.8538	0.0021
526.213	1.8534	0.0021
526.878	1.853	0.0022
527.544	1.8526	0.0022
528.209	1.8521	0.0022
528.874	1.8517	0.0022
529.54	1.8513	0.0022
530.205	1.8509	0.0022
530.87	1.8504	0.0022
531.536	1.85	0.0022
532.201	1.8496	0.0022
532.866	1.8492	0.0022
533.532	1.8488	0.0022
534.197	1.8484	0.0023
534.862	1.8479	0.0023
535.528	1.8475	0.0023
536.193	1.8471	0.0023
536.858	1.8467	0.0023
537.524	1.8463	0.0023
538.189	1.8459	0.0023
538.854	1.8455	0.0023
539.52	1.8451	0.0023
540.185	1.8447	0.0023
540.85	1.8443	0.0024
541.516	1.8439	0.0024
542.181	1.8435	0.0024
542.846	1.8431	0.0024
543.512	1.8427	0.0024
544.177	1.8423	0.0024
544.842	1.8419	0.0024
545.508	1.8415	0.0024
546.173	1.8411	0.0024
546.838	1.8407	0.0024
547.504	1.8403	0.0025
548.169	1.8399	0.0025
548.834	1.8395	0.0025
549.5	1.8391	0.0025
550.165	1.8387	0.0025
550.83	1.8383	0.0025
551.496	1.8379	0.0025
552.161	1.8376	0.0025
552.826	1.8372	0.0025
553.492	1.8368	0.0025
554.157	1.8364	0.0026
554.822	1.836	0.0026
555.488	1.8356	0.0026
556.153	1.8353	0.0026
556.818	1.8349	0.0026
557.484	1.8345	0.0026
558.149	1.8341	0.0026
558.814	1.8337	0.0026
559.48	1.8334	0.0026
560.145	1.833	0.0027
560.81	1.8326	0.0027
561.476	1.8322	0.0027
562.141	1.8318	0.0027
562.806	1.8315	0.0027
563.472	1.8311	0.0027
564.137	1.8307	0.0027
564.802	1.8304	0.0027
565.468	1.83	0.0027
566.133	1.8296	0.0027
566.798	1.8292	0.0028
567.464	1.8289	0.0028
568.129	1.8285	0.0028
568.794	1.8281	0.0028
569.46	1.8278	0.0028
570.125	1.8274	0.0028
570.79	1.827	0.0028
571.456	1.8267	0.0028
572.121	1.8263	0.0028
572.786	1.8259	0.0029
573.452	1.8256	0.0029
574.117	1.8252	0.0029
574.782	1.8249	0.0029
575.448	1.8245	0.0029
576.113	1.8241	0.0029
576.778	1.8238	0.0029
577.444	1.8234	0.0029
578.109	1.823	0.003
578.774	1.8227	0.003
579.44	1.8223	0.003
580.105	1.822	0.003
580.77	1.8216	0.003
581.436	1.8213	0.003
582.101	1.8209	0.003
582.766	1.8206	0.003
583.432	1.8202	0.003
584.097	1.8198	0.0031
584.762	1.8195	0.0031
585.428	1.8191	0.0031
586.093	1.8188	0.0031
586.758	1.8184	0.0031
587.424	1.8181	0.0031
588.089	1.8177	0.0031
588.754	1.8174	0.0031
589.42	1.817	0.0032
590.085	1.8167	0.0032
590.75	1.8163	0.0032
591.416	1.816	0.0032
592.081	1.8156	0.0032
592.746	1.8153	0.0032
593.412	1.815	0.0032
594.077	1.8146	0.0032
594.742	1.8143	0.0032
595.408	1.8139	0.0033
596.073	1.8136	0.0033
596.738	1.8132	0.0033
597.404	1.8129	0.0033
598.069	1.8125	0.0033
598.734	1.8122	0.0033
599.4	1.8119	0.0033
600.065	1.8115	0.0033
600.73	1.8112	0.0034
601.396	1.8108	0.0034
602.061	1.8105	0.0034
602.726	1.8101	0.0034
603.392	1.8098	0.0034
604.057	1.8095	0.0034
604.722	1.8091	0.0034
605.388	1.8088	0.0035
606.053	1.8085	0.0035
606.718	1.8081	0.0035
607.384	1.8078	0.0035
608.049	1.8074	0.0035
608.714	1.8071	0.0035
609.38	1.8068	0.0035
610.045	1.8064	0.0035
610.71	1.8061	0.0036
611.376	1.8058	0.0036
612.041	1.8054	0.0036
612.706	1.8051	0.0036
613.372	1.8048	0.0036
614.037	1.8044	0.0036
614.702	1.8041	0.0036
615.368	1.8038	0.0037
616.033	1.8034	0.0037
616.698	1.8031	0.0037
617.364	1.8028	0.0037
618.029	1.8024	0.0037
618.694	1.8021	0.0037
619.36	1.8018	0.0037
620.025	1.8014	0.0037
620.69	1.8011	0.0038
621.356	1.8008	0.0038
622.021	1.8005	0.0038
622.686	1.8001	0.0038
623.352	1.7998	0.0038
624.017	1.7995	0.0038
624.682	1.7991	0.0038
625.348	1.7988	0.0039
626.013	1.7985	0.0039
626.678	1.7982	0.0039
627.344	1.7978	0.0039
628.009	1.7975	0.0039
628.674	1.7972	0.0039
629.34	1.7968	0.0039
630.005	1.7965	0.004
630.67	1.7962	0.004
631.336	1.7959	0.004
632.001	1.7955	0.004
632.666	1.7952	0.004
633.332	1.7949	0.004
633.997	1.7946	0.004
634.662	1.7942	0.0041
635.328	1.7939	0.0041
635.993	1.7936	0.0041
636.658	1.7933	0.0041
637.324	1.793	0.0041
637.989	1.7926	0.0041
638.654	1.7923	0.0041
639.32	1.792	0.0042
639.985	1.7917	0.0042
640.65	1.7913	0.0042
641.316	1.791	0.0042
641.981	1.7907	0.0042
642.646	1.7904	0.0042
643.312	1.7901	0.0043
643.977	1.7897	0.0043
644.642	1.7894	0.0043
645.308	1.7891	0.0043
645.973	1.7888	0.0043
646.638	1.7884	0.0043
647.304	1.7881	0.0043
647.969	1.7878	0.0044
648.634	1.7875	0.0044
649.3	1.7872	0.0044
649.965	1.7869	0.0044
650.63	1.7865	0.0044
651.296	1.7862	0.0044
651.961	1.7859	0.0045
652.626	1.7856	0.0045
653.292	1.7853	0.0045
653.957	1.7849	0.0045
654.622	1.7846	0.0045
655.288	1.7843	0.0045
655.953	1.784	0.0045
656.618	1.7837	0.0046
657.284	1.7834	0.0046
657.949	1.783	0.0046
658.614	1.7827	0.0046
659.28	1.7824	0.0046
659.945	1.7821	0.0046
660.61	1.7818	0.0047
661.276	1.7815	0.0047
661.941	1.7811	0.0047
662.606	1.7808	0.0047
663.272	1.7805	0.0047
663.937	1.7802	0.0047
664.602	1.7799	0.0048
665.268	1.7796	0.0048
665.933	1.7792	0.0048
666.598	1.7789	0.0048
667.264	1.7786	0.0048
667.929	1.7783	0.0048
668.594	1.778	0.0049
669.26	1.7777	0.0049
669.925	1.7773	0.0049
670.59	1.777	0.0049
671.256	1.7767	0.0049
671.921	1.7764	0.0049
672.586	1.7761	0.005
673.252	1.7758	0.005
673.917	1.7755	0.005
674.582	1.7751	0.005
675.248	1.7748	0.005
675.913	1.7745	0.005
676.578	1.7742	0.0051
677.244	1.7739	0.0051
677.909	1.7736	0.0051
678.574	1.7733	0.0051
679.24	1.773	0.0051
679.905	1.7726	0.0052
680.57	1.7723	0.0052
681.236	1.772	0.0052
681.901	1.7717	0.0052
682.566	1.7714	0.0052
683.232	1.7711	0.0052
683.897	1.7708	0.0053
684.562	1.7704	0.0053
685.228	1.7701	0.0053
685.893	1.7698	0.0053
686.558	1.7695	0.0053
687.224	1.7692	0.0053
687.889	1.7689	0.0054
688.554	1.7686	0.0054
689.22	1.7683	0.0054
689.885	1.7679	0.0054
690.55	1.7676	0.0054
691.216	1.7673	0.0055
691.881	1.767	0.0055
692.546	1.7667	0.0055
693.212	1.7664	0.0055
693.877	1.7661	0.0055
694.542	1.7658	0.0056
695.208	1.7655	0.0056
695.873	1.7651	0.0056
696.538	1.7648	0.0056
697.204	1.7645	0.0056
697.869	1.7642	0.0056
698.534	1.7639	0.0057
699.2	1.7636	0.0057
699.865	1.7633	0.0057
700.53	1.763	0.0057
701.196	1.7626	0.0057
701.861	1.7623	0.0058
702.526	1.762	0.0058
703.192	1.7617	0.0058
703.857	1.7614	0.0058
704.522	1.7611	0.0058
705.188	1.7608	0.0059
705.853	1.7605	0.0059
706.518	1.7602	0.0059
707.184	1.7598	0.0059
707.849	1.7595	0.0059
708.514	1.7592	0.006
709.18	1.7589	0.006
709.845	1.7586	0.006
710.51	1.7583	0.006
711.176	1.758	0.006
711.841	1.7577	0.0061
712.506	1.7574	0.0061
713.172	1.757	0.0061
713.837	1.7567	0.0061
714.502	1.7564	0.0061
715.168	1.7561	0.0062
715.833	1.7558	0.0062
716.498	1.7555	0.0062
717.164	1.7552	0.0062
717.829	1.7549	0.0062
718.494	1.7546	0.0063
719.16	1.7542	0.0063
719.825	1.7539	0.0063
720.49	1.7536	0.0063
721.156	1.7533	0.0063
721.821	1.753	0.0064
722.486	1.7527	0.0064
723.152	1.7524	0.0064
723.817	1.7521	0.0064
724.482	1.7517	0.0064
725.148	1.7514	0.0065
725.813	1.7511	0.0065
726.478	1.7508	0.0065
727.144	1.7505	0.0065
727.809	1.7502	0.0066
728.474	1.7499	0.0066
729.14	1.7496	0.0066
729.805	1.7493	0.0066
730.47	1.7489	0.0066
731.136	1.7486	0.0067
731.801	1.7483	0.0067
732.466	1.748	0.0067
733.132	1.7477	0.0067
733.797	1.7474	0.0067
734.462	1.7471	0.0068
735.128	1.7468	0.0068
735.793	1.7464	0.0068
736.458	1.7461	0.0068
737.124	1.7458	0.0069
737.789	1.7455	0.0069
738.454	1.7452	0.0069
739.12	1.7449	0.0069
739.785	1.7446	0.0069
740.45	1.7443	0.007
741.116	1.7439	0.007
741.781	1.7436	0.007
742.446	1.7433	0.007
743.112	1.743	0.0071
743.777	1.7427	0.0071
744.442	1.7424	0.0071
745.108	1.7421	0.0071
745.773	1.7418	0.0071
746.438	1.7414	0.0072
747.104	1.7411	0.0072
747.769	1.7408	0.0072
748.434	1.7405	0.0072
749.1	1.7402	0.0073
749.765	1.7399	0.0073
750.43	1.7396	0.0073
751.096	1.7393	0.0073
751.761	1.7389	0.0074
752.426	1.7386	0.0074
753.092	1.7383	0.0074
753.757	1.738	0.0074
754.422	1.7377	0.0074
755.088	1.7374	0.0075
755.753	1.7371	0.0075
756.418	1.7367	0.0075
757.084	1.7364	0.0075
757.749	1.7361	0.0076
758.414	1.7358	0.0076
759.08	1.7355	0.0076
759.745	1.7352	0.0076
760.41	1.7349	0.0077
761.076	1.7345	0.0077
761.741	1.7342	0.0077
762.406	1.7339	0.0077
763.072	1.7336	0.0078
763.737	1.7333	0.0078
764.402	1.733	0.0078
765.068	1.7326	0.0078
765.733	1.7323	0.0079
766.398	1.732	0.0079
767.064	1.7317	0.0079
767.729	1.7314	0.0079
768.394	1.7311	0.008
769.06	1.7307	0.008
769.725	1.7304	0.008
770.39	1.7301	0.008
771.056	1.7298	0.0081
771.721	1.7295	0.0081
772.386	1.7292	0.0081
773.052	1.7289	0.0081
773.717	1.7285	0.0082
774.382	1.7282	0.0082
775.048	1.7279	0.0082
775.713	1.7276	0.0082
776.378	1.7273	0.0083
777.044	1.7269	0.0083
777.709	1.7266	0.0083
778.374	1.7263	0.0083
779.04	1.726	0.0084
779.705	1.7257	0.0084
780.37	1.7254	0.0084
781.036	1.725	0.0084
781.701	1.7247	0.0085
782.366	1.7244	0.0085
783.032	1.7241	0.0085
783.697	1.7238	0.0085
784.362	1.7234	0.0086
785.028	1.7231	0.0086
785.693	1.7228	0.0086
786.358	1.7225	0.0087
787.024	1.7222	0.0087
787.689	1.7218	0.0087
788.354	1.7215	0.0087
789.02	1.7212	0.0088
789.685	1.7209	0.0088
790.35	1.7206	0.0088
791.016	1.7202	0.0088
791.681	1.7199	0.0089
792.346	1.7196	0.0089
793.012	1.7193	0.0089
793.677	1.719	0.009
794.342	1.7186	0.009
795.008	1.7183	0.009
795.673	1.718	0.009
796.338	1.7177	0.0091
797.004	1.7174	0.0091
797.669	1.717	0.0091
798.334	1.7167	0.0091
798.999	1.7164	0.0092
799.665	1.7161	0.0092
800.33	1.7158	0.0092
800.995	1.7154	0.0093
801.661	1.7151	0.0093
802.326	1.7148	0.0093
802.991	1.7145	0.0093
803.657	1.7141	0.0094
804.322	1.7138	0.0094
804.987	1.7135	0.0094
805.653	1.7132	0.0095
806.318	1.7128	0.0095
806.983	1.7125	0.0095
807.649	1.7122	0.0095
808.314	1.7119	0.0096
808.979	1.7115	0.0096
809.645	1.7112	0.0096
810.31	1.7109	0.0097
810.975	1.7106	0.0097
811.641	1.7102	0.0097
812.306	1.7099	0.0098
812.971	1.7096	0.0098
813.637	1.7093	0.0098
814.302	1.7089	0.0098
814.967	1.7086	0.0099
815.633	1.7083	0.0099
816.298	1.708	0.0099
816.963	1.7076	0.01
817.629	1.7073	0.01
818.294	1.707	0.01
818.959	1.7067	0.01
819.625	1.7063	0.0101
820.29	1.706	0.0101
820.955	1.7057	0.0101
821.621	1.7054	0.0102
822.286	1.705	0.0102
822.951	1.7047	0.0102
823.617	1.7044	0.0103
824.282	1.704	0.0103
824.947	1.7037	0.0103
825.613	1.7034	0.0104
826.278	1.7031	0.0104
826.943	1.7027	0.0104
827.609	1.7024	0.0104
828.274	1.7021	0.0105
828.939	1.7017	0.0105
829.605	1.7014	0.0105
830.27	1.7011	0.0106
830.935	1.7007	0.0106
831.601	1.7004	0.0106
832.266	1.7001	0.0107
832.931	1.6998	0.0107
833.597	1.6994	0.0107
834.262	1.6991	0.0108
834.927	1.6988	0.0108
835.593	1.6984	0.0108
836.258	1.6981	0.0109
836.923	1.6978	0.0109
837.589	1.6974	0.0109
838.254	1.6971	0.011
838.919	1.6968	0.011
839.585	1.6964	0.011
840.25	1.6961	0.0111
840.915	1.6958	0.0111
841.581	1.6954	0.0111
842.246	1.6951	0.0112
842.911	1.6948	0.0112
843.577	1.6944	0.0112
844.242	1.6941	0.0113
844.907	1.6938	0.0113
845.573	1.6934	0.0113
846.238	1.6931	0.0114
846.903	1.6928	0.0114
847.569	1.6924	0.0114
848.234	1.6921	0.0115
848.899	1.6917	0.0115
849.565	1.6914	0.0115
850.23	1.6911	0.0116
850.895	1.6907	0.0116
851.561	1.6904	0.0116
852.226	1.6901	0.0117
852.891	1.6897	0.0117
853.557	1.6894	0.0117
854.222	1.6891	0.0118
854.887	1.6887	0.0118
855.553	1.6884	0.0118
856.218	1.688	0.0119
856.883	1.6877	0.0119
857.549	1.6874	0.0119
858.214	1.687	0.012
858.879	1.6867	0.012
859.545	1.6863	0.012
860.21	1.686	0.0121
860.875	1.6857	0.0121
861.541	1.6853	0.0121
862.206	1.685	0.0122
862.871	1.6846	0.0122
863.537	1.6843	0.0123
864.202	1.684	0.0123
864.867	1.6836	0.0123
865.533	1.6833	0.0124
866.198	1.6829	0.0124
866.863	1.6826	0.0124
867.529	1.6823	0.0125
868.194	1.6819	0.0125
868.859	1.6816	0.0125
869.525	1.6812	0.0126
870.19	1.6809	0.0126
870.855	1.6805	0.0127
871.521	1.6802	0.0127
872.186	1.6799	0.0127
872.851	1.6795	0.0128
873.517	1.6792	0.0128
874.182	1.6788	0.0128
874.847	1.6785	0.0129
875.513	1.6781	0.0129
876.178	1.6778	0.013
876.843	1.6774	0.013
877.509	1.6771	0.013
878.174	1.6767	0.0131
878.839	1.6764	0.0131
879.505	1.6761	0.0131
880.17	1.6757	0.0132
880.835	1.6754	0.0132
881.501	1.675	0.0133
882.166	1.6747	0.0133
882.831	1.6743	0.0133
883.497	1.674	0.0134
884.162	1.6736	0.0134
884.827	1.6733	0.0134
885.493	1.6729	0.0135
886.158	1.6726	0.0135
886.823	1.6722	0.0136
887.489	1.6719	0.0136
888.154	1.6715	0.0136
888.819	1.6712	0.0137
889.485	1.6708	0.0137
890.15	1.6705	0.0138
890.815	1.6701	0.0138
891.481	1.6698	0.0138
892.146	1.6694	0.0139
892.811	1.6691	0.0139
893.477	1.6687	0.014
894.142	1.6684	0.014
894.807	1.668	0.014
895.473	1.6677	0.0141
896.138	1.6673	0.0141
896.803	1.667	0.0142
897.469	1.6666	0.0142
898.134	1.6662	0.0142
898.799	1.6659	0.0143
899.465	1.6655	0.0143
900.13	1.6652	0.0144
900.795	1.6648	0.0144
