// thickness-independent fraction of light power (for rudimentary optics) between 0 and 1
simple transmission coefficient:
1

// wavelength-independent absorption coefficient 'a' according to I(z)=I0*exp(-a*z) in [1/m]
lambert beer absorption coefficient:
93340

// three-column refractive data for TMM calculations with wavelength [nm], n, k (must be tab-separated)
refractive data:
300	2.0854	0.2032
300.665	2.0852	0.201
301.331	2.0849	0.1988
301.996	2.0846	0.1967
302.661	2.0843	0.1945
303.327	2.084	0.1923
303.992	2.0836	0.1902
304.657	2.0833	0.188
305.323	2.0829	0.1859
305.988	2.0825	0.1838
306.653	2.0822	0.1816
307.319	2.0817	0.1795
307.984	2.0813	0.1774
308.649	2.0809	0.1753
309.315	2.0805	0.1732
309.98	2.08	0.1711
310.645	2.0795	0.169
311.311	2.079	0.167
311.976	2.0785	0.1649
312.641	2.078	0.1629
313.307	2.0775	0.1608
313.972	2.077	0.1588
314.637	2.0764	0.1567
315.303	2.0758	0.1547
315.968	2.0752	0.1527
316.633	2.0747	0.1507
317.299	2.074	0.1487
317.964	2.0734	0.1467
318.629	2.0728	0.1447
319.295	2.0721	0.1427
319.96	2.0715	0.1407
320.625	2.0708	0.1388
321.291	2.0701	0.1368
321.956	2.0694	0.1349
322.621	2.0687	0.133
323.287	2.068	0.131
323.952	2.0673	0.1291
324.617	2.0665	0.1272
325.283	2.0657	0.1253
325.948	2.065	0.1234
326.613	2.0642	0.1216
327.279	2.0634	0.1197
327.944	2.0626	0.1178
328.609	2.0617	0.116
329.275	2.0609	0.1142
329.94	2.0601	0.1123
330.605	2.0592	0.1105
331.271	2.0583	0.1087
331.936	2.0574	0.1069
332.601	2.0565	0.1051
333.267	2.0556	0.1034
333.932	2.0547	0.1016
334.597	2.0538	0.0999
335.263	2.0528	0.0981
335.928	2.0519	0.0964
336.593	2.0509	0.0947
337.259	2.0499	0.093
337.924	2.0489	0.0913
338.589	2.0479	0.0896
339.255	2.0469	0.0879
339.92	2.0459	0.0863
340.585	2.0448	0.0846
341.251	2.0438	0.083
341.916	2.0427	0.0813
342.581	2.0417	0.0797
343.247	2.0406	0.0781
343.912	2.0395	0.0765
344.577	2.0384	0.075
345.243	2.0373	0.0734
345.908	2.0362	0.0719
346.573	2.035	0.0703
347.239	2.0339	0.0688
347.904	2.0327	0.0673
348.569	2.0316	0.0658
349.235	2.0304	0.0643
349.9	2.0292	0.0629
350.565	2.028	0.0614
351.231	2.0268	0.06
351.896	2.0256	0.0585
352.561	2.0244	0.0571
353.227	2.0231	0.0557
353.892	2.0219	0.0543
354.557	2.0206	0.053
355.223	2.0194	0.0516
355.888	2.0181	0.0503
356.553	2.0168	0.0489
357.219	2.0156	0.0476
357.884	2.0143	0.0463
358.549	2.013	0.0451
359.215	2.0116	0.0438
359.88	2.0103	0.0425
360.545	2.009	0.0413
361.211	2.0077	0.0401
361.876	2.0063	0.0389
362.541	2.005	0.0377
363.207	2.0036	0.0365
363.872	2.0022	0.0354
364.537	2.0009	0.0342
365.203	1.9995	0.0331
365.868	1.9981	0.032
366.533	1.9967	0.0309
367.199	1.9953	0.0299
367.864	1.9939	0.0288
368.529	1.9925	0.0278
369.195	1.9911	0.0268
369.86	1.9897	0.0258
370.525	1.9882	0.0248
371.191	1.9868	0.0238
371.856	1.9854	0.0229
372.521	1.9839	0.0219
373.187	1.9825	0.021
373.852	1.981	0.0201
374.517	1.9796	0.0193
375.183	1.9781	0.0184
375.848	1.9766	0.0176
376.513	1.9752	0.0168
377.179	1.9737	0.016
377.844	1.9722	0.0152
378.509	1.9707	0.0144
379.175	1.9693	0.0137
379.84	1.9678	0.013
380.505	1.9663	0.0123
381.171	1.9648	0.0116
381.836	1.9633	0.011
382.501	1.9619	0.0103
383.167	1.9604	0.0097
383.832	1.9589	0.0091
384.497	1.9574	0.0085
385.163	1.9559	0.008
385.828	1.9544	0.0075
386.493	1.953	0.007
387.159	1.9515	0.0065
387.824	1.95	0.006
388.489	1.9485	0.0056
389.155	1.9471	0.0052
389.82	1.9456	0.0048
390.485	1.9441	0.0044
391.151	1.9427	0.004
391.816	1.9412	0.0037
392.481	1.9398	0.0034
393.147	1.9384	0.0031
393.812	1.9369	0.0029
394.477	1.9355	0.0027
395.143	1.9341	0.0024
395.808	1.9327	0.0023
396.473	1.9313	0.0021
397.139	1.93	0.002
397.804	1.9286	0.0019
398.469	1.9273	0.0018
399.135	1.926	0.0017
399.8	1.9247	0.0017
400.465	1.9234	0.0017
401.131	1.9222	0.0017
401.796	1.921	0.0017
402.461	1.9199	0.0017
403.127	1.9191	0.0017
403.792	1.9176	0.0017
404.457	1.9165	0.0017
405.123	1.9154	0.0017
405.788	1.9144	0.0018
406.453	1.9133	0.0018
407.119	1.9123	0.0018
407.784	1.9113	0.0018
408.449	1.9102	0.0018
409.115	1.9092	0.0018
409.78	1.9083	0.0018
410.445	1.9073	0.0018
411.111	1.9063	0.0018
411.776	1.9054	0.0018
412.441	1.9044	0.0019
413.107	1.9035	0.0019
413.772	1.9026	0.0019
414.437	1.9017	0.0019
415.103	1.9008	0.0019
415.768	1.8999	0.0019
416.433	1.899	0.0019
417.099	1.8981	0.0019
417.764	1.8973	0.0019
418.429	1.8964	0.0019
419.095	1.8955	0.002
419.76	1.8947	0.002
420.425	1.8939	0.002
421.091	1.893	0.002
421.756	1.8922	0.002
422.421	1.8914	0.002
423.087	1.8906	0.002
423.752	1.8898	0.002
424.417	1.889	0.002
425.083	1.8882	0.002
425.748	1.8874	0.0021
426.413	1.8866	0.0021
427.079	1.8859	0.0021
427.744	1.8851	0.0021
428.409	1.8843	0.0021
429.075	1.8836	0.0021
429.74	1.8828	0.0021
430.405	1.8821	0.0021
431.071	1.8813	0.0021
431.736	1.8806	0.0021
432.401	1.8799	0.0022
433.067	1.8791	0.0022
433.732	1.8784	0.0022
434.397	1.8777	0.0022
435.063	1.877	0.0022
435.728	1.8763	0.0022
436.393	1.8756	0.0022
437.059	1.8749	0.0022
437.724	1.8742	0.0022
438.389	1.8735	0.0023
439.055	1.8728	0.0023
439.72	1.8721	0.0023
440.385	1.8715	0.0023
441.051	1.8708	0.0023
441.716	1.8701	0.0023
442.381	1.8695	0.0023
443.047	1.8688	0.0023
443.712	1.8681	0.0023
444.377	1.8675	0.0024
445.043	1.8668	0.0024
445.708	1.8662	0.0024
446.373	1.8655	0.0024
447.039	1.8649	0.0024
447.704	1.8643	0.0024
448.369	1.8636	0.0024
449.035	1.863	0.0024
449.7	1.8624	0.0025
450.365	1.8618	0.0025
451.031	1.8611	0.0025
451.696	1.8605	0.0025
452.361	1.8599	0.0025
453.027	1.8593	0.0025
453.692	1.8587	0.0025
454.357	1.8581	0.0025
455.023	1.8575	0.0025
455.688	1.8569	0.0026
456.353	1.8563	0.0026
457.019	1.8557	0.0026
457.684	1.8551	0.0026
458.349	1.8545	0.0026
459.015	1.8539	0.0026
459.68	1.8533	0.0026
460.345	1.8528	0.0026
461.011	1.8522	0.0027
461.676	1.8516	0.0027
462.341	1.851	0.0027
463.007	1.8505	0.0027
463.672	1.8499	0.0027
464.337	1.8493	0.0027
465.003	1.8488	0.0027
465.668	1.8482	0.0027
466.333	1.8477	0.0028
466.998	1.8471	0.0028
467.664	1.8466	0.0028
468.329	1.846	0.0028
468.994	1.8455	0.0028
469.66	1.8449	0.0028
470.325	1.8444	0.0028
470.99	1.8438	0.0028
471.656	1.8433	0.0029
472.321	1.8427	0.0029
472.986	1.8422	0.0029
473.652	1.8417	0.0029
474.317	1.8411	0.0029
474.982	1.8406	0.0029
475.648	1.8401	0.0029
476.313	1.8395	0.0029
476.978	1.839	0.003
477.644	1.8385	0.003
478.309	1.838	0.003
478.974	1.8375	0.003
479.64	1.8369	0.003
480.305	1.8364	0.003
480.97	1.8359	0.003
481.636	1.8354	0.0031
482.301	1.8349	0.0031
482.966	1.8344	0.0031
483.632	1.8339	0.0031
484.297	1.8334	0.0031
484.962	1.8329	0.0031
485.628	1.8324	0.0031
486.293	1.8319	0.0032
486.958	1.8314	0.0032
487.624	1.8309	0.0032
488.289	1.8304	0.0032
488.954	1.8299	0.0032
489.62	1.8294	0.0032
490.285	1.8289	0.0032
490.95	1.8284	0.0032
491.616	1.8279	0.0033
492.281	1.8274	0.0033
492.946	1.8269	0.0033
493.612	1.8265	0.0033
494.277	1.826	0.0033
494.942	1.8255	0.0033
495.608	1.825	0.0033
496.273	1.8245	0.0034
496.938	1.8241	0.0034
497.604	1.8236	0.0034
498.269	1.8231	0.0034
498.934	1.8226	0.0034
499.6	1.8222	0.0034
500.265	1.8217	0.0035
500.93	1.8212	0.0035
501.596	1.8208	0.0035
502.261	1.8203	0.0035
502.926	1.8198	0.0035
503.592	1.8194	0.0035
504.257	1.8189	0.0035
504.922	1.8184	0.0036
505.588	1.818	0.0036
506.253	1.8175	0.0036
506.918	1.8171	0.0036
507.584	1.8166	0.0036
508.249	1.8161	0.0036
508.914	1.8157	0.0036
509.58	1.8152	0.0037
510.245	1.8148	0.0037
510.91	1.8143	0.0037
511.576	1.8139	0.0037
512.241	1.8134	0.0037
512.906	1.813	0.0037
513.572	1.8125	0.0038
514.237	1.8121	0.0038
514.902	1.8116	0.0038
515.568	1.8112	0.0038
516.233	1.8108	0.0038
516.898	1.8103	0.0038
517.564	1.8099	0.0038
518.229	1.8094	0.0039
518.894	1.809	0.0039
519.56	1.8086	0.0039
520.225	1.8081	0.0039
520.89	1.8077	0.0039
521.556	1.8072	0.0039
522.221	1.8068	0.004
522.886	1.8064	0.004
523.552	1.8059	0.004
524.217	1.8055	0.004
524.882	1.8051	0.004
525.548	1.8046	0.004
526.213	1.8042	0.0041
526.878	1.8038	0.0041
527.544	1.8034	0.0041
528.209	1.8029	0.0041
528.874	1.8025	0.0041
529.54	1.8021	0.0041
530.205	1.8016	0.0042
530.87	1.8012	0.0042
531.536	1.8008	0.0042
532.201	1.8004	0.0042
532.866	1.8	0.0042
533.532	1.7995	0.0042
534.197	1.7991	0.0043
534.862	1.7987	0.0043
535.528	1.7983	0.0043
536.193	1.7979	0.0043
536.858	1.7974	0.0043
537.524	1.797	0.0043
538.189	1.7966	0.0044
538.854	1.7962	0.0044
539.52	1.7958	0.0044
540.185	1.7954	0.0044
540.85	1.7949	0.0044
541.516	1.7945	0.0044
542.181	1.7941	0.0045
542.846	1.7937	0.0045
543.512	1.7933	0.0045
544.177	1.7929	0.0045
544.842	1.7925	0.0045
545.508	1.7921	0.0045
546.173	1.7916	0.0046
546.838	1.7912	0.0046
547.504	1.7908	0.0046
548.169	1.7904	0.0046
548.834	1.79	0.0046
549.5	1.7896	0.0047
550.165	1.7892	0.0047
550.83	1.7888	0.0047
551.496	1.7884	0.0047
552.161	1.788	0.0047
552.826	1.7876	0.0047
553.492	1.7872	0.0048
554.157	1.7868	0.0048
554.822	1.7864	0.0048
555.488	1.786	0.0048
556.153	1.7856	0.0048
556.818	1.7852	0.0049
557.484	1.7848	0.0049
558.149	1.7844	0.0049
558.814	1.784	0.0049
559.48	1.7836	0.0049
560.145	1.7832	0.0049
560.81	1.7828	0.005
561.476	1.7824	0.005
562.141	1.782	0.005
562.806	1.7816	0.005
563.472	1.7812	0.005
564.137	1.7808	0.0051
564.802	1.7804	0.0051
565.468	1.78	0.0051
566.133	1.7796	0.0051
566.798	1.7792	0.0051
567.464	1.7788	0.0052
568.129	1.7785	0.0052
568.794	1.7781	0.0052
569.46	1.7777	0.0052
570.125	1.7773	0.0052
570.79	1.7769	0.0053
571.456	1.7765	0.0053
572.121	1.7761	0.0053
572.786	1.7757	0.0053
573.452	1.7753	0.0053
574.117	1.7749	0.0053
574.782	1.7746	0.0054
575.448	1.7742	0.0054
576.113	1.7738	0.0054
576.778	1.7734	0.0054
577.444	1.773	0.0054
578.109	1.7726	0.0055
578.774	1.7722	0.0055
579.44	1.7718	0.0055
580.105	1.7715	0.0055
580.77	1.7711	0.0055
581.436	1.7707	0.0056
582.101	1.7703	0.0056
582.766	1.7699	0.0056
583.432	1.7695	0.0056
584.097	1.7692	0.0057
584.762	1.7688	0.0057
585.428	1.7684	0.0057
586.093	1.768	0.0057
586.758	1.7676	0.0057
587.424	1.7672	0.0058
588.089	1.7669	0.0058
588.754	1.7665	0.0058
589.42	1.7661	0.0058
590.085	1.7657	0.0058
590.75	1.7653	0.0059
591.416	1.765	0.0059
592.081	1.7646	0.0059
592.746	1.7642	0.0059
593.412	1.7638	0.0059
594.077	1.7634	0.006
594.742	1.7631	0.006
595.408	1.7627	0.006
596.073	1.7623	0.006
596.738	1.7619	0.006
597.404	1.7615	0.0061
598.069	1.7612	0.0061
598.734	1.7608	0.0061
599.4	1.7604	0.0061
600.065	1.76	0.0062
600.73	1.7597	0.0062
601.396	1.7593	0.0062
602.061	1.7589	0.0062
602.726	1.7585	0.0062
603.392	1.7581	0.0063
604.057	1.7578	0.0063
604.722	1.7574	0.0063
605.388	1.757	0.0063
606.053	1.7566	0.0064
606.718	1.7563	0.0064
607.384	1.7559	0.0064
608.049	1.7555	0.0064
608.714	1.7551	0.0064
609.38	1.7548	0.0065
610.045	1.7544	0.0065
610.71	1.754	0.0065
611.376	1.7537	0.0065
612.041	1.7533	0.0066
612.706	1.7529	0.0066
613.372	1.7525	0.0066
614.037	1.7522	0.0066
614.702	1.7518	0.0066
615.368	1.7514	0.0067
616.033	1.751	0.0067
616.698	1.7507	0.0067
617.364	1.7503	0.0067
618.029	1.7499	0.0068
618.694	1.7495	0.0068
619.36	1.7492	0.0068
620.025	1.7488	0.0068
620.69	1.7484	0.0069
621.356	1.7481	0.0069
622.021	1.7477	0.0069
622.686	1.7473	0.0069
623.352	1.7469	0.007
624.017	1.7466	0.007
624.682	1.7462	0.007
625.348	1.7458	0.007
626.013	1.7455	0.007
626.678	1.7451	0.0071
627.344	1.7447	0.0071
628.009	1.7444	0.0071
628.674	1.744	0.0071
629.34	1.7436	0.0072
630.005	1.7432	0.0072
630.67	1.7429	0.0072
631.336	1.7425	0.0072
632.001	1.7421	0.0073
632.666	1.7418	0.0073
633.332	1.7414	0.0073
633.997	1.741	0.0073
634.662	1.7407	0.0074
635.328	1.7403	0.0074
635.993	1.7399	0.0074
636.658	1.7395	0.0074
637.324	1.7392	0.0075
637.989	1.7388	0.0075
638.654	1.7384	0.0075
639.32	1.7381	0.0075
639.985	1.7377	0.0076
640.65	1.7373	0.0076
641.316	1.737	0.0076
641.981	1.7366	0.0076
642.646	1.7362	0.0077
643.312	1.7359	0.0077
643.977	1.7355	0.0077
644.642	1.7351	0.0077
645.308	1.7348	0.0078
645.973	1.7344	0.0078
646.638	1.734	0.0078
647.304	1.7337	0.0078
647.969	1.7333	0.0079
648.634	1.7329	0.0079
649.3	1.7325	0.0079
649.965	1.7322	0.0079
650.63	1.7318	0.008
651.296	1.7314	0.008
651.961	1.7311	0.008
652.626	1.7307	0.0081
653.292	1.7303	0.0081
653.957	1.73	0.0081
654.622	1.7296	0.0081
655.288	1.7292	0.0082
655.953	1.7289	0.0082
656.618	1.7285	0.0082
657.284	1.7281	0.0082
657.949	1.7278	0.0083
658.614	1.7274	0.0083
659.28	1.727	0.0083
659.945	1.7267	0.0083
660.61	1.7263	0.0084
661.276	1.7259	0.0084
661.941	1.7256	0.0084
662.606	1.7252	0.0085
663.272	1.7248	0.0085
663.937	1.7245	0.0085
664.602	1.7241	0.0085
665.268	1.7237	0.0086
665.933	1.7234	0.0086
666.598	1.723	0.0086
667.264	1.7226	0.0086
667.929	1.7223	0.0087
668.594	1.7219	0.0087
669.26	1.7215	0.0087
669.925	1.7212	0.0088
670.59	1.7208	0.0088
671.256	1.7204	0.0088
671.921	1.72	0.0088
672.586	1.7197	0.0089
673.252	1.7193	0.0089
673.917	1.7189	0.0089
674.582	1.7186	0.009
675.248	1.7182	0.009
675.913	1.7178	0.009
676.578	1.7175	0.009
677.244	1.7171	0.0091
677.909	1.7167	0.0091
678.574	1.7164	0.0091
679.24	1.716	0.0092
679.905	1.7156	0.0092
680.57	1.7153	0.0092
681.236	1.7149	0.0092
681.901	1.7145	0.0093
682.566	1.7142	0.0093
683.232	1.7138	0.0093
683.897	1.7134	0.0094
684.562	1.7131	0.0094
685.228	1.7127	0.0094
685.893	1.7123	0.0094
686.558	1.7119	0.0095
687.224	1.7116	0.0095
687.889	1.7112	0.0095
688.554	1.7108	0.0096
689.22	1.7105	0.0096
689.885	1.7101	0.0096
690.55	1.7097	0.0096
691.216	1.7094	0.0097
691.881	1.709	0.0097
692.546	1.7086	0.0097
693.212	1.7083	0.0098
693.877	1.7079	0.0098
694.542	1.7075	0.0098
695.208	1.7072	0.0099
695.873	1.7068	0.0099
696.538	1.7064	0.0099
697.204	1.706	0.01
697.869	1.7057	0.01
698.534	1.7053	0.01
699.2	1.7049	0.01
699.865	1.7046	0.0101
700.53	1.7042	0.0101
701.196	1.7038	0.0101
701.861	1.7035	0.0102
702.526	1.7031	0.0102
703.192	1.7027	0.0102
703.857	1.7023	0.0103
704.522	1.702	0.0103
705.188	1.7016	0.0103
705.853	1.7012	0.0104
706.518	1.7009	0.0104
707.184	1.7005	0.0104
707.849	1.7001	0.0105
708.514	1.6997	0.0105
709.18	1.6994	0.0105
709.845	1.699	0.0105
710.51	1.6986	0.0106
711.176	1.6983	0.0106
711.841	1.6979	0.0106
712.506	1.6975	0.0107
713.172	1.6971	0.0107
713.837	1.6968	0.0107
714.502	1.6964	0.0108
715.168	1.696	0.0108
715.833	1.6957	0.0108
716.498	1.6953	0.0109
717.164	1.6949	0.0109
717.829	1.6945	0.0109
718.494	1.6942	0.011
719.16	1.6938	0.011
719.825	1.6934	0.011
720.49	1.693	0.0111
721.156	1.6927	0.0111
721.821	1.6923	0.0111
722.486	1.6919	0.0112
723.152	1.6916	0.0112
723.817	1.6912	0.0112
724.482	1.6908	0.0113
725.148	1.6904	0.0113
725.813	1.6901	0.0113
726.478	1.6897	0.0114
727.144	1.6893	0.0114
727.809	1.6889	0.0114
728.474	1.6886	0.0115
729.14	1.6882	0.0115
729.805	1.6878	0.0115
730.47	1.6874	0.0116
731.136	1.6871	0.0116
731.801	1.6867	0.0116
732.466	1.6863	0.0117
733.132	1.6859	0.0117
733.797	1.6856	0.0117
734.462	1.6852	0.0118
735.128	1.6848	0.0118
735.793	1.6844	0.0118
736.458	1.6841	0.0119
737.124	1.6837	0.0119
737.789	1.6833	0.0119
738.454	1.6829	0.012
739.12	1.6825	0.012
739.785	1.6822	0.0121
740.45	1.6818	0.0121
741.116	1.6814	0.0121
741.781	1.681	0.0122
742.446	1.6807	0.0122
743.112	1.6803	0.0122
743.777	1.6799	0.0123
744.442	1.6795	0.0123
745.108	1.6791	0.0123
745.773	1.6788	0.0124
746.438	1.6784	0.0124
747.104	1.678	0.0124
747.769	1.6776	0.0125
748.434	1.6773	0.0125
749.1	1.6769	0.0126
749.765	1.6765	0.0126
750.43	1.6761	0.0126
751.096	1.6757	0.0127
751.761	1.6754	0.0127
752.426	1.675	0.0127
753.092	1.6746	0.0128
753.757	1.6742	0.0128
754.422	1.6738	0.0128
755.088	1.6735	0.0129
755.753	1.6731	0.0129
756.418	1.6727	0.013
757.084	1.6723	0.013
757.749	1.6719	0.013
758.414	1.6715	0.0131
759.08	1.6712	0.0131
759.745	1.6708	0.0131
760.41	1.6704	0.0132
761.076	1.67	0.0132
761.741	1.6696	0.0133
762.406	1.6693	0.0133
763.072	1.6689	0.0133
763.737	1.6685	0.0134
764.402	1.6681	0.0134
765.068	1.6677	0.0134
765.733	1.6673	0.0135
766.398	1.667	0.0135
767.064	1.6666	0.0136
767.729	1.6662	0.0136
768.394	1.6658	0.0136
769.06	1.6654	0.0137
769.725	1.665	0.0137
770.39	1.6646	0.0137
771.056	1.6643	0.0138
771.721	1.6639	0.0138
772.386	1.6635	0.0139
773.052	1.6631	0.0139
773.717	1.6627	0.0139
774.382	1.6623	0.014
775.048	1.6619	0.014
775.713	1.6616	0.0141
776.378	1.6612	0.0141
777.044	1.6608	0.0141
777.709	1.6604	0.0142
778.374	1.66	0.0142
779.04	1.6596	0.0143
779.705	1.6592	0.0143
780.37	1.6588	0.0143
781.036	1.6585	0.0144
781.701	1.6581	0.0144
782.366	1.6577	0.0145
783.032	1.6573	0.0145
783.697	1.6569	0.0145
784.362	1.6565	0.0146
785.028	1.6561	0.0146
785.693	1.6557	0.0147
786.358	1.6553	0.0147
787.024	1.655	0.0147
787.689	1.6546	0.0148
788.354	1.6542	0.0148
789.02	1.6538	0.0149
789.685	1.6534	0.0149
790.35	1.653	0.0149
791.016	1.6526	0.015
791.681	1.6522	0.015
792.346	1.6518	0.0151
793.012	1.6514	0.0151
793.677	1.651	0.0152
794.342	1.6507	0.0152
795.008	1.6503	0.0152
795.673	1.6499	0.0153
796.338	1.6495	0.0153
797.004	1.6491	0.0154
797.669	1.6487	0.0154
798.334	1.6483	0.0154
798.999	1.6479	0.0155
799.665	1.6475	0.0155
800.33	1.6471	0.0156
800.995	1.6467	0.0156
801.661	1.6463	0.0157
802.326	1.6459	0.0157
802.991	1.6455	0.0157
803.657	1.6451	0.0158
804.322	1.6447	0.0158
804.987	1.6443	0.0159
805.653	1.644	0.0159
806.318	1.6436	0.016
806.983	1.6432	0.016
807.649	1.6428	0.016
808.314	1.6424	0.0161
808.979	1.642	0.0161
809.645	1.6416	0.0162
810.31	1.6412	0.0162
810.975	1.6408	0.0163
811.641	1.6404	0.0163
812.306	1.64	0.0163
812.971	1.6396	0.0164
813.637	1.6392	0.0164
814.302	1.6388	0.0165
814.967	1.6384	0.0165
815.633	1.638	0.0166
816.298	1.6376	0.0166
816.963	1.6372	0.0167
817.629	1.6368	0.0167
818.294	1.6364	0.0167
818.959	1.636	0.0168
819.625	1.6356	0.0168
820.29	1.6352	0.0169
820.955	1.6348	0.0169
821.621	1.6344	0.017
822.286	1.634	0.017
822.951	1.6336	0.0171
823.617	1.6332	0.0171
824.282	1.6328	0.0172
824.947	1.6324	0.0172
825.613	1.632	0.0172
826.278	1.6316	0.0173
826.943	1.6312	0.0173
827.609	1.6307	0.0174
828.274	1.6303	0.0174
828.939	1.6299	0.0175
829.605	1.6295	0.0175
830.27	1.6291	0.0176
830.935	1.6287	0.0176
831.601	1.6283	0.0177
832.266	1.6279	0.0177
832.931	1.6275	0.0178
833.597	1.6271	0.0178
834.262	1.6267	0.0178
834.927	1.6263	0.0179
835.593	1.6259	0.0179
836.258	1.6255	0.018
836.923	1.6251	0.018
837.589	1.6247	0.0181
838.254	1.6242	0.0181
838.919	1.6238	0.0182
839.585	1.6234	0.0182
840.25	1.623	0.0183
840.915	1.6226	0.0183
841.581	1.6222	0.0184
842.246	1.6218	0.0184
842.911	1.6214	0.0185
843.577	1.621	0.0185
844.242	1.6206	0.0186
844.907	1.6202	0.0186
845.573	1.6197	0.0187
846.238	1.6193	0.0187
846.903	1.6189	0.0188
847.569	1.6185	0.0188
848.234	1.6181	0.0189
848.899	1.6177	0.0189
849.565	1.6173	0.019
850.23	1.6169	0.019
850.895	1.6164	0.0191
851.561	1.616	0.0191
852.226	1.6156	0.0192
852.891	1.6152	0.0192
853.557	1.6148	0.0193
854.222	1.6144	0.0193
854.887	1.614	0.0194
855.553	1.6135	0.0194
856.218	1.6131	0.0195
856.883	1.6127	0.0195
857.549	1.6123	0.0196
858.214	1.6119	0.0196
858.879	1.6115	0.0197
859.545	1.611	0.0197
860.21	1.6106	0.0198
860.875	1.6102	0.0198
861.541	1.6098	0.0199
862.206	1.6094	0.0199
862.871	1.609	0.02
863.537	1.6085	0.02
864.202	1.6081	0.0201
864.867	1.6077	0.0201
865.533	1.6073	0.0202
866.198	1.6069	0.0202
866.863	1.6064	0.0203
867.529	1.606	0.0203
868.194	1.6056	0.0204
868.859	1.6052	0.0204
869.525	1.6048	0.0205
870.19	1.6043	0.0205
870.855	1.6039	0.0206
871.521	1.6035	0.0206
872.186	1.6031	0.0207
872.851	1.6026	0.0207
873.517	1.6022	0.0208
874.182	1.6018	0.0208
874.847	1.6014	0.0209
875.513	1.601	0.0209
876.178	1.6005	0.021
876.843	1.6001	0.0211
877.509	1.5997	0.0211
878.174	1.5993	0.0212
878.839	1.5988	0.0212
879.505	1.5984	0.0213
880.17	1.598	0.0213
880.835	1.5976	0.0214
881.501	1.5971	0.0214
882.166	1.5967	0.0215
882.831	1.5963	0.0215
883.497	1.5958	0.0216
884.162	1.5954	0.0216
884.827	1.595	0.0217
885.493	1.5946	0.0218
886.158	1.5941	0.0218
886.823	1.5937	0.0219
887.489	1.5933	0.0219
888.154	1.5928	0.022
888.819	1.5924	0.022
889.485	1.592	0.0221
890.15	1.5916	0.0221
890.815	1.5911	0.0222
891.481	1.5907	0.0223
892.146	1.5903	0.0223
892.811	1.5898	0.0224
893.477	1.5894	0.0224
894.142	1.589	0.0225
894.807	1.5885	0.0225
895.473	1.5881	0.0226
896.138	1.5877	0.0226
896.803	1.5872	0.0227
897.469	1.5868	0.0228
898.134	1.5864	0.0228
898.799	1.5859	0.0229
899.465	1.5855	0.0229
900.13	1.5851	0.023
900.795	1.5846	0.023
901.461	1.5842	0.0231
902.126	1.5838	0.0232
