// thickness-independent fraction of light power (for rudimentary optics) between 0 and 1		
simple transmission coefficient:		
1		
		
// wavelength-independent absorption coefficient 'a' according to I(z)=I0*exp(-a*z) in [1/m]		
lambert beer absorption coefficient:		
93340		
		
// three-column refractive data for TMM calculations with wavelength [nm], n, k (must be tab-separated)		
refractive data:		
300	2.0854	0.150876
300.665	2.0852	0.1492425
301.331	2.0849	0.147609
301.996	2.0846	0.14604975
302.661	2.0843	0.14441625
303.327	2.084	0.14278275
303.992	2.0836	0.1412235
304.657	2.0833	0.13959
305.323	2.0829	0.13803075
305.988	2.0825	0.1364715
306.653	2.0822	0.134838
307.319	2.0817	0.13327875
307.984	2.0813	0.1317195
308.649	2.0809	0.13016025
309.315	2.0805	0.128601
309.98	2.08	0.12704175
310.645	2.0795	0.1254825
311.311	2.079	0.1239975
311.976	2.0785	0.12243825
312.641	2.078	0.12095325
313.307	2.0775	0.119394
313.972	2.077	0.117909
314.637	2.0764	0.11634975
315.303	2.0758	0.11486475
315.968	2.0752	0.11337975
316.633	2.0747	0.11189475
317.299	2.074	0.11040975
317.964	2.0734	0.10892475
318.629	2.0728	0.10743975
319.295	2.0721	0.10595475
319.96	2.0715	0.10446975
320.625	2.0708	0.103059
321.291	2.0701	0.101574
321.956	2.0694	0.10016325
322.621	2.0687	0.0987525
323.287	2.068	0.0972675
323.952	2.0673	0.09585675
324.617	2.0665	0.094446
325.283	2.0657	0.09303525
325.948	2.065	0.0916245
326.613	2.0642	0.090288
327.279	2.0634	0.08887725
327.944	2.0626	0.0874665
328.609	2.0617	0.08613
329.275	2.0609	0.0847935
329.94	2.0601	0.08338275
330.605	2.0592	0.08204625
331.271	2.0583	0.08070975
331.936	2.0574	0.07937325
332.601	2.0565	0.07803675
333.267	2.0556	0.0767745
333.932	2.0547	0.075438
334.597	2.0538	0.07417575
335.263	2.0528	0.07283925
335.928	2.0519	0.071577
336.593	2.0509	0.07031475
337.259	2.0499	0.0690525
337.924	2.0489	0.06779025
338.589	2.0479	0.066528
339.255	2.0469	0.06526575
339.92	2.0459	0.06407775
340.585	2.0448	0.0628155
341.251	2.0438	0.0616275
341.916	2.0427	0.06036525
342.581	2.0417	0.05917725
343.247	2.0406	0.05798925
343.912	2.0395	0.05680125
344.577	2.0384	0.0556875
345.243	2.0373	0.0544995
345.908	2.0362	0.05338575
346.573	2.035	0.05219775
347.239	2.0339	0.051084
347.904	2.0327	0.04997025
348.569	2.0316	0.0488565
349.235	2.0304	0.04774275
349.9	2.0292	0.04670325
350.565	2.028	0.0455895
351.231	2.0268	0.04455
351.896	2.0256	0.04343625
352.561	2.0244	0.04239675
353.227	2.0231	0.04135725
353.892	2.0219	0.04031775
354.557	2.0206	0.0393525
355.223	2.0194	0.038313
355.888	2.0181	0.03734775
356.553	2.0168	0.03630825
357.219	2.0156	0.035343
357.884	2.0143	0.03437775
358.549	2.013	0.03348675
359.215	2.0116	0.0325215
359.88	2.0103	0.03155625
360.545	2.009	0.03066525
361.211	2.0077	0.02977425
361.876	2.0063	0.02888325
362.541	2.005	0.02799225
363.207	2.0036	0.02710125
363.872	2.0022	0.0262845
364.537	2.0009	0.0253935
365.203	1.9995	0.02457675
365.868	1.9981	0.02376
366.533	1.9967	0.02294325
367.199	1.9953	0.02220075
367.864	1.9939	0.021384
368.529	1.9925	0.0206415
369.195	1.9911	0.019899
369.86	1.9897	0.0191565
370.525	1.9882	0.018414
371.191	1.9868	0.0176715
371.856	1.9854	0.01700325
372.521	1.9839	0.01626075
373.187	1.9825	0.0155925
373.852	1.981	0.01492425
374.517	1.9796	0.01433025
375.183	1.9781	0.013662
375.848	1.9766	0.013068
376.513	1.9752	0.012474
377.179	1.9737	0.01188
377.844	1.9722	0.011286
378.509	1.9707	0.010692
379.175	1.9693	0.01017225
379.84	1.9678	0.0096525
380.505	1.9663	0.00913275
381.171	1.9648	0.008613
381.836	1.9633	0.0081675
382.501	1.9619	0.00764775
383.167	1.9604	0.00720225
383.832	1.9589	0.00675675
384.497	1.9574	0.00631125
385.163	1.9559	0.00594
385.828	1.9544	0.00556875
386.493	1.953	0.0051975
387.159	1.9515	0.00482625
387.824	1.95	0.004455
388.489	1.9485	0.004158
389.155	1.9471	0.003861
389.82	1.9456	0.003564
390.485	1.9441	0.003267
391.151	1.9427	0.00297
391.816	1.9412	0.00274725
392.481	1.9398	0.0025245
393.147	1.9384	0.00230175
393.812	1.9369	0.00215325
394.477	1.9355	0.00200475
395.143	1.9341	0.001782
395.808	1.9327	0.00170775
396.473	1.9313	0.00155925
397.139	1.93	0.001485
397.804	1.9286	0.00141075
398.469	1.9273	0.0013365
399.135	1.926	0.00126225
399.8	1.9247	0.00126225
400.465	1.9234	0.00126225
401.131	1.9222	0.00126225
401.796	1.921	0.00126225
402.461	1.9199	0.00126225
403.127	1.9191	0.00126225
403.792	1.9176	0.00126225
404.457	1.9165	0.00126225
405.123	1.9154	0.00126225
405.788	1.9144	0.0013365
406.453	1.9133	0.0013365
407.119	1.9123	0.0013365
407.784	1.9113	0.0013365
408.449	1.9102	0.0013365
409.115	1.9092	0.0013365
409.78	1.9083	0.0013365
410.445	1.9073	0.0013365
411.111	1.9063	0.0013365
411.776	1.9054	0.0013365
412.441	1.9044	0.00141075
413.107	1.9035	0.00141075
413.772	1.9026	0.00141075
414.437	1.9017	0.00141075
415.103	1.9008	0.00141075
415.768	1.8999	0.00141075
416.433	1.899	0.00141075
417.099	1.8981	0.00141075
417.764	1.8973	0.00141075
418.429	1.8964	0.00141075
419.095	1.8955	0.001485
419.76	1.8947	0.001485
420.425	1.8939	0.001485
421.091	1.893	0.001485
421.756	1.8922	0.001485
422.421	1.8914	0.001485
423.087	1.8906	0.001485
423.752	1.8898	0.001485
424.417	1.889	0.001485
425.083	1.8882	0.001485
425.748	1.8874	0.00155925
426.413	1.8866	0.00155925
427.079	1.8859	0.00155925
427.744	1.8851	0.00155925
428.409	1.8843	0.00155925
429.075	1.8836	0.00155925
429.74	1.8828	0.00155925
430.405	1.8821	0.00155925
431.071	1.8813	0.00155925
431.736	1.8806	0.00155925
432.401	1.8799	0.0016335
433.067	1.8791	0.0016335
433.732	1.8784	0.0016335
434.397	1.8777	0.0016335
435.063	1.877	0.0016335
435.728	1.8763	0.0016335
436.393	1.8756	0.0016335
437.059	1.8749	0.0016335
437.724	1.8742	0.0016335
438.389	1.8735	0.00170775
439.055	1.8728	0.00170775
439.72	1.8721	0.00170775
440.385	1.8715	0.00170775
441.051	1.8708	0.00170775
441.716	1.8701	0.00170775
442.381	1.8695	0.00170775
443.047	1.8688	0.00170775
443.712	1.8681	0.00170775
444.377	1.8675	0.001782
445.043	1.8668	0.001782
445.708	1.8662	0.001782
446.373	1.8655	0.001782
447.039	1.8649	0.001782
447.704	1.8643	0.001782
448.369	1.8636	0.001782
449.035	1.863	0.001782
449.7	1.8624	0.00185625
450.365	1.8618	0.00185625
451.031	1.8611	0.00185625
451.696	1.8605	0.00185625
452.361	1.8599	0.00185625
453.027	1.8593	0.00185625
453.692	1.8587	0.00185625
454.357	1.8581	0.00185625
455.023	1.8575	0.00185625
455.688	1.8569	0.0019305
456.353	1.8563	0.0019305
457.019	1.8557	0.0019305
457.684	1.8551	0.0019305
458.349	1.8545	0.0019305
459.015	1.8539	0.0019305
459.68	1.8533	0.0019305
460.345	1.8528	0.0019305
461.011	1.8522	0.00200475
461.676	1.8516	0.00200475
462.341	1.851	0.00200475
463.007	1.8505	0.00200475
463.672	1.8499	0.00200475
464.337	1.8493	0.00200475
465.003	1.8488	0.00200475
465.668	1.8482	0.00200475
466.333	1.8477	0.002079
466.998	1.8471	0.002079
467.664	1.8466	0.002079
468.329	1.846	0.002079
468.994	1.8455	0.002079
469.66	1.8449	0.002079
470.325	1.8444	0.002079
470.99	1.8438	0.002079
471.656	1.8433	0.00215325
472.321	1.8427	0.00215325
472.986	1.8422	0.00215325
473.652	1.8417	0.00215325
474.317	1.8411	0.00215325
474.982	1.8406	0.00215325
475.648	1.8401	0.00215325
476.313	1.8395	0.00215325
476.978	1.839	0.0022275
477.644	1.8385	0.0022275
478.309	1.838	0.0022275
478.974	1.8375	0.0022275
479.64	1.8369	0.0022275
480.305	1.8364	0.0022275
480.97	1.8359	0.0022275
481.636	1.8354	0.00230175
482.301	1.8349	0.00230175
482.966	1.8344	0.00230175
483.632	1.8339	0.00230175
484.297	1.8334	0.00230175
484.962	1.8329	0.00230175
485.628	1.8324	0.00230175
486.293	1.8319	0.002376
486.958	1.8314	0.002376
487.624	1.8309	0.002376
488.289	1.8304	0.002376
488.954	1.8299	0.002376
489.62	1.8294	0.002376
490.285	1.8289	0.002376
490.95	1.8284	0.002376
491.616	1.8279	0.00245025
492.281	1.8274	0.00245025
492.946	1.8269	0.00245025
493.612	1.8265	0.00245025
494.277	1.826	0.00245025
494.942	1.8255	0.00245025
495.608	1.825	0.00245025
496.273	1.8245	0.0025245
496.938	1.8241	0.0025245
497.604	1.8236	0.0025245
498.269	1.8231	0.0025245
498.934	1.8226	0.0025245
499.6	1.8222	0.0025245
500.265	1.8217	0.00259875
500.93	1.8212	0.00259875
501.596	1.8208	0.00259875
502.261	1.8203	0.00259875
502.926	1.8198	0.00259875
503.592	1.8194	0.00259875
504.257	1.8189	0.00259875
504.922	1.8184	0.002673
505.588	1.818	0.002673
506.253	1.8175	0.002673
506.918	1.8171	0.002673
507.584	1.8166	0.002673
508.249	1.8161	0.002673
508.914	1.8157	0.002673
509.58	1.8152	0.00274725
510.245	1.8148	0.00274725
510.91	1.8143	0.00274725
511.576	1.8139	0.00274725
512.241	1.8134	0.00274725
512.906	1.813	0.00274725
513.572	1.8125	0.0028215
514.237	1.8121	0.0028215
514.902	1.8116	0.0028215
515.568	1.8112	0.0028215
516.233	1.8108	0.0028215
516.898	1.8103	0.0028215
517.564	1.8099	0.0028215
518.229	1.8094	0.00289575
518.894	1.809	0.00289575
519.56	1.8086	0.00289575
520.225	1.8081	0.00289575
520.89	1.8077	0.00289575
521.556	1.8072	0.00289575
522.221	1.8068	0.00297
522.886	1.8064	0.00297
523.552	1.8059	0.00297
524.217	1.8055	0.00297
524.882	1.8051	0.00297
525.548	1.8046	0.00297
526.213	1.8042	0.00304425
526.878	1.8038	0.00304425
527.544	1.8034	0.00304425
528.209	1.8029	0.00304425
528.874	1.8025	0.00304425
529.54	1.8021	0.00304425
530.205	1.8016	0.0031185
530.87	1.8012	0.0031185
531.536	1.8008	0.0031185
532.201	1.8004	0.0031185
532.866	1.8	0.0031185
533.532	1.7995	0.0031185
534.197	1.7991	0.00319275
534.862	1.7987	0.00319275
535.528	1.7983	0.00319275
536.193	1.7979	0.00319275
536.858	1.7974	0.00319275
537.524	1.797	0.00319275
538.189	1.7966	0.003267
538.854	1.7962	0.003267
539.52	1.7958	0.003267
540.185	1.7954	0.003267
540.85	1.7949	0.003267
541.516	1.7945	0.003267
542.181	1.7941	0.00334125
542.846	1.7937	0.00334125
543.512	1.7933	0.00334125
544.177	1.7929	0.00334125
544.842	1.7925	0.00334125
545.508	1.7921	0.00334125
546.173	1.7916	0.0034155
546.838	1.7912	0.0034155
547.504	1.7908	0.0034155
548.169	1.7904	0.0034155
548.834	1.79	0.0034155
549.5	1.7896	0.00348975
550.165	1.7892	0.00348975
550.83	1.7888	0.00348975
551.496	1.7884	0.00348975
552.161	1.788	0.00348975
552.826	1.7876	0.00348975
553.492	1.7872	0.003564
554.157	1.7868	0.003564
554.822	1.7864	0.003564
555.488	1.786	0.003564
556.153	1.7856	0.003564
556.818	1.7852	0.00363825
557.484	1.7848	0.00363825
558.149	1.7844	0.00363825
558.814	1.784	0.00363825
559.48	1.7836	0.00363825
560.145	1.7832	0.00363825
560.81	1.7828	0.0037125
561.476	1.7824	0.0037125
562.141	1.782	0.0037125
562.806	1.7816	0.0037125
563.472	1.7812	0.0037125
564.137	1.7808	0.00378675
564.802	1.7804	0.00378675
565.468	1.78	0.00378675
566.133	1.7796	0.00378675
566.798	1.7792	0.00378675
567.464	1.7788	0.003861
568.129	1.7785	0.003861
568.794	1.7781	0.003861
569.46	1.7777	0.003861
570.125	1.7773	0.003861
570.79	1.7769	0.00393525
571.456	1.7765	0.00393525
572.121	1.7761	0.00393525
572.786	1.7757	0.00393525
573.452	1.7753	0.00393525
574.117	1.7749	0.00393525
574.782	1.7746	0.0040095
575.448	1.7742	0.0040095
576.113	1.7738	0.0040095
576.778	1.7734	0.0040095
577.444	1.773	0.0040095
578.109	1.7726	0.00408375
578.774	1.7722	0.00408375
579.44	1.7718	0.00408375
580.105	1.7715	0.00408375
580.77	1.7711	0.00408375
581.436	1.7707	0.004158
582.101	1.7703	0.004158
582.766	1.7699	0.004158
583.432	1.7695	0.004158
584.097	1.7692	0.00423225
584.762	1.7688	0.00423225
585.428	1.7684	0.00423225
586.093	1.768	0.00423225
586.758	1.7676	0.00423225
587.424	1.7672	0.0043065
588.089	1.7669	0.0043065
588.754	1.7665	0.0043065
589.42	1.7661	0.0043065
590.085	1.7657	0.0043065
590.75	1.7653	0.00438075
591.416	1.765	0.00438075
592.081	1.7646	0.00438075
592.746	1.7642	0.00438075
593.412	1.7638	0.00438075
594.077	1.7634	0.004455
594.742	1.7631	0.004455
595.408	1.7627	0.004455
596.073	1.7623	0.004455
596.738	1.7619	0.004455
597.404	1.7615	0.00452925
598.069	1.7612	0.00452925
598.734	1.7608	0.00452925
599.4	1.7604	0.00452925
600.065	1.76	0.0046035
600.73	1.7597	0.0046035
601.396	1.7593	0.0046035
602.061	1.7589	0.0046035
602.726	1.7585	0.0046035
603.392	1.7581	0.00467775
604.057	1.7578	0.00467775
604.722	1.7574	0.00467775
605.388	1.757	0.00467775
606.053	1.7566	0.004752
606.718	1.7563	0.004752
607.384	1.7559	0.004752
608.049	1.7555	0.004752
608.714	1.7551	0.004752
609.38	1.7548	0.00482625
610.045	1.7544	0.00482625
610.71	1.754	0.00482625
611.376	1.7537	0.00482625
612.041	1.7533	0.0049005
612.706	1.7529	0.0049005
613.372	1.7525	0.0049005
614.037	1.7522	0.0049005
614.702	1.7518	0.0049005
615.368	1.7514	0.00497475
616.033	1.751	0.00497475
616.698	1.7507	0.00497475
617.364	1.7503	0.00497475
618.029	1.7499	0.005049
618.694	1.7495	0.005049
619.36	1.7492	0.005049
620.025	1.7488	0.005049
620.69	1.7484	0.00512325
621.356	1.7481	0.00512325
622.021	1.7477	0.00512325
622.686	1.7473	0.00512325
623.352	1.7469	0.0051975
624.017	1.7466	0.0051975
624.682	1.7462	0.0051975
625.348	1.7458	0.0051975
626.013	1.7455	0.0051975
626.678	1.7451	0.00527175
627.344	1.7447	0.00527175
628.009	1.7444	0.00527175
628.674	1.744	0.00527175
629.34	1.7436	0.005346
630.005	1.7432	0.005346
630.67	1.7429	0.005346
631.336	1.7425	0.005346
632.001	1.7421	0.00542025
632.666	1.7418	0.00542025
633.332	1.7414	0.00542025
633.997	1.741	0.00542025
634.662	1.7407	0.0054945
635.328	1.7403	0.0054945
635.993	1.7399	0.0054945
636.658	1.7395	0.0054945
637.324	1.7392	0.00556875
637.989	1.7388	0.00556875
638.654	1.7384	0.00556875
639.32	1.7381	0.00556875
639.985	1.7377	0.005643
640.65	1.7373	0.005643
641.316	1.737	0.005643
641.981	1.7366	0.005643
642.646	1.7362	0.00571725
643.312	1.7359	0.00571725
643.977	1.7355	0.00571725
644.642	1.7351	0.00571725
645.308	1.7348	0.0057915
645.973	1.7344	0.0057915
646.638	1.734	0.0057915
647.304	1.7337	0.0057915
647.969	1.7333	0.00586575
648.634	1.7329	0.00586575
649.3	1.7325	0.00586575
649.965	1.7322	0.00586575
650.63	1.7318	0.00594
651.296	1.7314	0.00594
651.961	1.7311	0.00594
652.626	1.7307	0.00601425
653.292	1.7303	0.00601425
653.957	1.73	0.00601425
654.622	1.7296	0.00601425
655.288	1.7292	0.0060885
655.953	1.7289	0.0060885
656.618	1.7285	0.0060885
657.284	1.7281	0.0060885
657.949	1.7278	0.00616275
658.614	1.7274	0.00616275
659.28	1.727	0.00616275
659.945	1.7267	0.00616275
660.61	1.7263	0.006237
661.276	1.7259	0.006237
661.941	1.7256	0.006237
662.606	1.7252	0.00631125
663.272	1.7248	0.00631125
663.937	1.7245	0.00631125
664.602	1.7241	0.00631125
665.268	1.7237	0.0063855
665.933	1.7234	0.0063855
666.598	1.723	0.0063855
667.264	1.7226	0.0063855
667.929	1.7223	0.00645975
668.594	1.7219	0.00645975
669.26	1.7215	0.00645975
669.925	1.7212	0.006534
670.59	1.7208	0.006534
671.256	1.7204	0.006534
671.921	1.72	0.006534
672.586	1.7197	0.00660825
673.252	1.7193	0.00660825
673.917	1.7189	0.00660825
674.582	1.7186	0.0066825
675.248	1.7182	0.0066825
675.913	1.7178	0.0066825
676.578	1.7175	0.0066825
677.244	1.7171	0.00675675
677.909	1.7167	0.00675675
678.574	1.7164	0.00675675
679.24	1.716	0.006831
679.905	1.7156	0.006831
680.57	1.7153	0.006831
681.236	1.7149	0.006831
681.901	1.7145	0.00690525
682.566	1.7142	0.00690525
683.232	1.7138	0.00690525
683.897	1.7134	0.0069795
684.562	1.7131	0.0069795
685.228	1.7127	0.0069795
685.893	1.7123	0.0069795
686.558	1.7119	0.00705375
687.224	1.7116	0.00705375
687.889	1.7112	0.00705375
688.554	1.7108	0.007128
689.22	1.7105	0.007128
689.885	1.7101	0.007128
690.55	1.7097	0.007128
691.216	1.7094	0.00720225
691.881	1.709	0.00720225
692.546	1.7086	0.00720225
693.212	1.7083	0.0072765
693.877	1.7079	0.0072765
694.542	1.7075	0.0072765
695.208	1.7072	0.00735075
695.873	1.7068	0.00735075
696.538	1.7064	0.00735075
697.204	1.706	0.007425
697.869	1.7057	0.007425
698.534	1.7053	0.007425
699.2	1.7049	0.007425
699.865	1.7046	0.00749925
700.53	1.7042	0.00749925
701.196	1.7038	0.00749925
701.861	1.7035	0.0075735
702.526	1.7031	0.0075735
703.192	1.7027	0.0075735
703.857	1.7023	0.00764775
704.522	1.702	0.00764775
705.188	1.7016	0.00764775
705.853	1.7012	0.007722
706.518	1.7009	0.007722
707.184	1.7005	0.007722
707.849	1.7001	0.00779625
708.514	1.6997	0.00779625
709.18	1.6994	0.00779625
709.845	1.699	0.00779625
710.51	1.6986	0.0078705
711.176	1.6983	0.0078705
711.841	1.6979	0.0078705
712.506	1.6975	0.00794475
713.172	1.6971	0.00794475
713.837	1.6968	0.00794475
714.502	1.6964	0.008019
715.168	1.696	0.008019
715.833	1.6957	0.008019
716.498	1.6953	0.00809325
717.164	1.6949	0.00809325
717.829	1.6945	0.00809325
718.494	1.6942	0.0081675
719.16	1.6938	0.0081675
719.825	1.6934	0.0081675
720.49	1.693	0.00824175
721.156	1.6927	0.00824175
721.821	1.6923	0.00824175
722.486	1.6919	0.008316
723.152	1.6916	0.008316
723.817	1.6912	0.008316
724.482	1.6908	0.00839025
725.148	1.6904	0.00839025
725.813	1.6901	0.00839025
726.478	1.6897	0.0084645
727.144	1.6893	0.0084645
727.809	1.6889	0.0084645
728.474	1.6886	0.00853875
729.14	1.6882	0.00853875
729.805	1.6878	0.00853875
730.47	1.6874	0.008613
731.136	1.6871	0.008613
731.801	1.6867	0.008613
732.466	1.6863	0.00868725
733.132	1.6859	0.00868725
733.797	1.6856	0.00868725
734.462	1.6852	0.0087615
735.128	1.6848	0.0087615
735.793	1.6844	0.0087615
736.458	1.6841	0.00883575
737.124	1.6837	0.00883575
737.789	1.6833	0.00883575
738.454	1.6829	0.00891
739.12	1.6825	0.00891
739.785	1.6822	0.00898425
740.45	1.6818	0.00898425
741.116	1.6814	0.00898425
741.781	1.681	0.0090585
742.446	1.6807	0.0090585
743.112	1.6803	0.0090585
743.777	1.6799	0.00913275
744.442	1.6795	0.00913275
745.108	1.6791	0.00913275
745.773	1.6788	0.009207
746.438	1.6784	0.009207
747.104	1.678	0.009207
747.769	1.6776	0.00928125
748.434	1.6773	0.00928125
749.1	1.6769	0.0093555
749.765	1.6765	0.0093555
750.43	1.6761	0.0093555
751.096	1.6757	0.00942975
751.761	1.6754	0.00942975
752.426	1.675	0.00942975
753.092	1.6746	0.009504
753.757	1.6742	0.009504
754.422	1.6738	0.009504
755.088	1.6735	0.00957825
755.753	1.6731	0.00957825
756.418	1.6727	0.0096525
757.084	1.6723	0.0096525
757.749	1.6719	0.0096525
758.414	1.6715	0.00972675
759.08	1.6712	0.00972675
759.745	1.6708	0.00972675
760.41	1.6704	0.009801
761.076	1.67	0.009801
761.741	1.6696	0.00987525
762.406	1.6693	0.00987525
763.072	1.6689	0.00987525
763.737	1.6685	0.0099495
764.402	1.6681	0.0099495
765.068	1.6677	0.0099495
765.733	1.6673	0.01002375
766.398	1.667	0.01002375
767.064	1.6666	0.010098
767.729	1.6662	0.010098
768.394	1.6658	0.010098
769.06	1.6654	0.01017225
769.725	1.665	0.01017225
770.39	1.6646	0.01017225
771.056	1.6643	0.0102465
771.721	1.6639	0.0102465
772.386	1.6635	0.01032075
773.052	1.6631	0.01032075
773.717	1.6627	0.01032075
774.382	1.6623	0.010395
775.048	1.6619	0.010395
775.713	1.6616	0.01046925
776.378	1.6612	0.01046925
777.044	1.6608	0.01046925
777.709	1.6604	0.0105435
778.374	1.66	0.0105435
779.04	1.6596	0.01061775
779.705	1.6592	0.01061775
780.37	1.6588	0.01061775
781.036	1.6585	0.010692
781.701	1.6581	0.010692
782.366	1.6577	0.01076625
783.032	1.6573	0.01076625
783.697	1.6569	0.01076625
784.362	1.6565	0.0108405
785.028	1.6561	0.0108405
785.693	1.6557	0.01091475
786.358	1.6553	0.01091475
787.024	1.655	0.01091475
787.689	1.6546	0.010989
788.354	1.6542	0.010989
789.02	1.6538	0.01106325
789.685	1.6534	0.01106325
790.35	1.653	0.01106325
791.016	1.6526	0.0111375
791.681	1.6522	0.0111375
792.346	1.6518	0.01121175
793.012	1.6514	0.01121175
793.677	1.651	0.011286
794.342	1.6507	0.011286
795.008	1.6503	0.011286
795.673	1.6499	0.01136025
796.338	1.6495	0.01136025
797.004	1.6491	0.0114345
797.669	1.6487	0.0114345
798.334	1.6483	0.0114345
798.999	1.6479	0.01150875
799.665	1.6475	0.01150875
800.33	1.6471	0.011583
800.995	1.6467	0.011583
801.661	1.6463	0.01165725
802.326	1.6459	0.01165725
802.991	1.6455	0.01165725
803.657	1.6451	0.0117315
804.322	1.6447	0.0117315
804.987	1.6443	0.01180575
805.653	1.644	0.01180575
806.318	1.6436	0.01188
806.983	1.6432	0.01188
807.649	1.6428	0.01188
808.314	1.6424	0.01195425
808.979	1.642	0.01195425
809.645	1.6416	0.0120285
810.31	1.6412	0.0120285
810.975	1.6408	0.01210275
811.641	1.6404	0.01210275
812.306	1.64	0.01210275
812.971	1.6396	0.012177
813.637	1.6392	0.012177
814.302	1.6388	0.01225125
814.967	1.6384	0.01225125
815.633	1.638	0.0123255
816.298	1.6376	0.0123255
816.963	1.6372	0.01239975
817.629	1.6368	0.01239975
818.294	1.6364	0.01239975
818.959	1.636	0.012474
819.625	1.6356	0.012474
820.29	1.6352	0.01254825
